['COUNTER', 'AF3', 'F7', 'F3', 'FC5', 'T7', 'P7', 'O1', 'O2', 'P8', 'T8', 'FC6', 'F4', 'F8', 'AF4', 'GYROX', 'GYROY', 'TIMESTAMP', 'FUNC_ID', 'FUNC_VALUE', 'MARKER', 'SYNC_SIGNAL']
45.0 , 3345.12820513 , 3908.71794872 , 4139.48717949 , 3805.64102564 , 4618.46153846 , 4087.69230769 , 4472.82051282 , 4341.53846154 , 4305.64102564 , 4384.1025641 , 4241.53846154 , 4101.02564103 , 3522.56410256 , 3767.17948718 , 1687.0 , 1670.0 , 2.763 , 0.0 , 0.0 , 0.0 , 0.0 , 

46.0 , 3348.20512821 , 3913.33333333 , 4143.58974359 , 3804.61538462 , 4611.79487179 , 4082.56410256 , 4472.82051282 , 4342.05128205 , 4305.12820513 , 4373.33333333 , 4241.02564103 , 4104.1025641 , 3527.17948718 , 3777.94871795 , 1686.0 , 1672.0 , 2.763 , 0.0 , 0.0 , 0.0 , 0.0 , 

47.0 , 3348.20512821 , 3912.30769231 , 4147.69230769 , 3806.66666667 , 4598.46153846 , 4076.92307692 , 4472.82051282 , 4338.97435897 , 4298.97435897 , 4382.56410256 , 4244.61538462 , 4105.12820513 , 3532.30769231 , 3782.56410256 , 1686.0 , 1672.0 , 2.763 , 0.0 , 0.0 , 0.0 , 0.0 , 

48.0 , 3338.97435897 , 3898.46153846 , 4140.51282051 , 3798.46153846 , 4597.43589744 , 4074.87179487 , 4472.82051282 , 4333.33333333 , 4295.38461538 , 4370.76923077 , 4236.41025641 , 4099.48717949 , 3521.53846154 , 3766.66666667 , 1685.0 , 1675.0 , 2.766 , 0.0 , 0.0 , 0.0 , 0.0 , 

49.0 , 3328.71794872 , 3889.74358974 , 4132.30769231 , 3786.15384615 , 4600.51282051 , 4075.38461538 , 4472.82051282 , 4330.76923077 , 4296.92307692 , 4351.28205128 , 4229.23076923 , 4097.43589744 , 3504.1025641 , 3751.79487179 , 1687.0 , 1673.0 , 2.79 , 0.0 , 0.0 , 0.0 , 0.0 , 

50.0 , 3329.23076923 , 3896.92307692 , 4136.41025641 , 3785.12820513 , 4598.46153846 , 4077.43589744 , 4472.82051282 , 4332.82051282 , 4296.41025641 , 4366.66666667 , 4235.38461538 , 4102.56410256 , 3508.71794872 , 3752.82051282 , 1686.0 , 1672.0 , 2.79 , 0.0 , 0.0 , 0.0 , 0.0 , 

51.0 , 3330.25641026 , 3894.35897436 , 4137.94871795 , 3787.17948718 , 4602.05128205 , 4076.92307692 , 4472.82051282 , 4335.38461538 , 4296.41025641 , 4377.94871795 , 4236.41025641 , 4103.58974359 , 3521.53846154 , 3752.82051282 , 1688.0 , 1672.0 , 2.79 , 0.0 , 0.0 , 0.0 , 0.0 , 

52.0 , 3323.58974359 , 3880.0 , 4134.35897436 , 3782.05128205 , 4612.82051282 , 4077.94871795 , 4472.82051282 , 4332.82051282 , 4296.41025641 , 4361.02564103 , 4225.64102564 , 4095.38461538 , 3516.41025641 , 3750.25641026 , 1688.0 , 1672.0 , 2.797 , 0.0 , 0.0 , 0.0 , 0.0 , 

53.0 , 3327.17948718 , 3883.58974359 , 4138.46153846 , 3786.66666667 , 4606.15384615 , 4076.92307692 , 4472.82051282 , 4327.69230769 , 4297.43589744 , 4361.02564103 , 4237.43589744 , 4094.35897436 , 3520.51282051 , 3763.07692308 , 1687.0 , 1672.0 , 2.823 , 0.0 , 0.0 , 0.0 , 0.0 , 

54.0 , 3334.87179487 , 3888.20512821 , 4141.02564103 , 3797.43589744 , 4585.12820513 , 4075.38461538 , 4472.82051282 , 4327.17948718 , 4301.53846154 , 4378.46153846 , 4253.33333333 , 4104.61538462 , 3535.8974359 , 3773.33333333 , 1688.0 , 1671.0 , 2.823 , 0.0 , 0.0 , 0.0 , 0.0 , 

55.0 , 3329.23076923 , 3882.05128205 , 4138.46153846 , 3790.76923077 , 4589.23076923 , 4080.51282051 , 4472.82051282 , 4332.30769231 , 4305.12820513 , 4378.46153846 , 4238.97435897 , 4106.15384615 , 3529.23076923 , 3765.64102564 , 1687.0 , 1672.0 , 2.823 , 0.0 , 0.0 , 0.0 , 0.0 , 

56.0 , 3324.61538462 , 3884.61538462 , 4139.48717949 , 3782.56410256 , 4600.0 , 4082.56410256 , 4473.33333333 , 4338.46153846 , 4312.30769231 , 4378.46153846 , 4229.23076923 , 4100.0 , 3521.02564103 , 3760.51282051 , 1687.0 , 1671.0 , 2.828 , 0.0 , 0.0 , 0.0 , 0.0 , 

57.0 , 3329.23076923 , 3886.15384615 , 4140.0 , 3787.69230769 , 4589.23076923 , 4076.41025641 , 4473.84615385 , 4336.41025641 , 4312.30769231 , 4386.15384615 , 4238.97435897 , 4100.51282051 , 3525.12820513 , 3761.53846154 , 1686.0 , 1672.0 , 2.853 , 0.0 , 0.0 , 0.0 , 0.0 , 

58.0 , 3329.74358974 , 3884.1025641 , 4137.43589744 , 3788.20512821 , 4588.71794872 , 4072.82051282 , 4473.84615385 , 4331.28205128 , 4301.02564103 , 4382.56410256 , 4239.48717949 , 4097.94871795 , 3520.51282051 , 3760.51282051 , 1687.0 , 1672.0 , 2.853 , 0.0 , 0.0 , 0.0 , 0.0 , 

59.0 , 3328.71794872 , 3890.76923077 , 4136.41025641 , 3783.58974359 , 4598.46153846 , 4073.84615385 , 4474.35897436 , 4333.33333333 , 4298.46153846 , 4378.46153846 , 4232.30769231 , 4089.74358974 , 3519.48717949 , 3765.12820513 , 1686.0 , 1672.0 , 2.853 , 0.0 , 0.0 , 0.0 , 0.0 , 

60.0 , 3325.64102564 , 3889.74358974 , 4135.38461538 , 3786.15384615 , 4604.1025641 , 4072.82051282 , 4473.33333333 , 4336.92307692 , 4303.07692308 , 4380.0 , 4232.82051282 , 4090.76923077 , 3529.23076923 , 3768.20512821 , 1687.0 , 1672.0 , 2.859 , 0.0 , 0.0 , 0.0 , 0.0 , 

61.0 , 3318.46153846 , 3876.41025641 , 4134.87179487 , 3782.56410256 , 4613.33333333 , 4074.35897436 , 4472.82051282 , 4331.79487179 , 4297.43589744 , 4370.25641026 , 4222.56410256 , 4091.28205128 , 3528.71794872 , 3754.35897436 , 1687.0 , 1672.0 , 2.884 , 0.0 , 0.0 , 0.0 , 0.0 , 

62.0 , 3312.82051282 , 3875.38461538 , 4133.84615385 , 3775.38461538 , 4611.28205128 , 4077.43589744 , 4473.84615385 , 4330.25641026 , 4293.84615385 , 4361.02564103 , 4212.30769231 , 4086.15384615 , 3519.48717949 , 3745.12820513 , 1689.0 , 1671.0 , 2.884 , 0.0 , 0.0 , 0.0 , 0.0 , 

63.0 , 3311.79487179 , 3885.12820513 , 4131.79487179 , 3779.48717949 , 4598.46153846 , 4075.8974359 , 4473.84615385 , 4334.87179487 , 4297.43589744 , 4370.25641026 , 4222.56410256 , 4084.61538462 , 3520.51282051 , 3747.69230769 , 1689.0 , 1669.0 , 2.884 , 0.0 , 0.0 , 0.0 , 0.0 , 

64.0 , 3320.0 , 3892.30769231 , 4132.30769231 , 3787.69230769 , 4603.07692308 , 4074.35897436 , 4472.82051282 , 4335.8974359 , 4297.94871795 , 4382.56410256 , 4232.82051282 , 4093.33333333 , 3534.87179487 , 3753.33333333 , 1689.0 , 1671.0 , 2.892 , 0.0 , 0.0 , 0.0 , 0.0 , 

65.0 , 3331.28205128 , 3896.92307692 , 4135.38461538 , 3788.20512821 , 4607.69230769 , 4074.87179487 , 4473.33333333 , 4336.92307692 , 4301.53846154 , 4388.71794872 , 4235.38461538 , 4100.0 , 3546.66666667 , 3765.64102564 , 1691.0 , 1669.0 , 2.916 , 0.0 , 0.0 , 0.0 , 0.0 , 

66.0 , 3327.17948718 , 3892.30769231 , 4136.41025641 , 3786.15384615 , 4603.07692308 , 4074.87179487 , 4473.33333333 , 4336.41025641 , 4302.56410256 , 4390.25641026 , 4234.87179487 , 4094.35897436 , 3540.51282051 , 3768.71794872 , 1689.0 , 1669.0 , 2.916 , 0.0 , 0.0 , 0.0 , 0.0 , 

67.0 , 3315.38461538 , 3885.64102564 , 4134.87179487 , 3784.61538462 , 4609.74358974 , 4074.35897436 , 4471.79487179 , 4328.20512821 , 4294.35897436 , 4383.07692308 , 4226.15384615 , 4084.1025641 , 3526.66666667 , 3755.38461538 , 1689.0 , 1669.0 , 2.916 , 0.0 , 0.0 , 0.0 , 0.0 , 

68.0 , 3315.8974359 , 3887.69230769 , 4132.82051282 , 3782.56410256 , 4612.30769231 , 4074.87179487 , 4471.79487179 , 4324.1025641 , 4293.33333333 , 4371.79487179 , 4217.43589744 , 4083.07692308 , 3532.82051282 , 3750.76923077 , 1687.0 , 1669.0 , 2.922 , 0.0 , 0.0 , 0.0 , 0.0 , 

69.0 , 3317.94871795 , 3893.33333333 , 4134.35897436 , 3784.61538462 , 4601.02564103 , 4074.35897436 , 4472.30769231 , 4331.79487179 , 4296.92307692 , 4373.33333333 , 4220.0 , 4087.69230769 , 3542.05128205 , 3756.41025641 , 1686.0 , 1669.0 , 2.943 , 0.0 , 0.0 , 0.0 , 0.0 , 

70.0 , 3313.33333333 , 3893.84615385 , 4132.82051282 , 3783.58974359 , 4597.94871795 , 4074.87179487 , 4472.30769231 , 4334.87179487 , 4296.41025641 , 4378.46153846 , 4219.48717949 , 4084.1025641 , 3530.76923077 , 3743.58974359 , 1685.0 , 1669.0 , 2.943 , 0.0 , 0.0 , 0.0 , 0.0 , 

71.0 , 3311.79487179 , 3892.82051282 , 4126.66666667 , 3776.92307692 , 4601.53846154 , 4075.8974359 , 4472.30769231 , 4330.76923077 , 4297.43589744 , 4373.84615385 , 4215.38461538 , 4080.0 , 3522.56410256 , 3731.79487179 , 1685.0 , 1669.0 , 2.945 , 0.0 , 0.0 , 0.0 , 0.0 , 

72.0 , 3307.17948718 , 3898.97435897 , 4124.1025641 , 3775.8974359 , 4605.64102564 , 4075.38461538 , 4472.30769231 , 4322.56410256 , 4289.74358974 , 4365.12820513 , 4217.43589744 , 4078.46153846 , 3523.07692308 , 3738.46153846 , 1685.0 , 1670.0 , 2.953 , 0.0 , 0.0 , 0.0 , 0.0 , 

73.0 , 3297.43589744 , 3898.97435897 , 4123.07692308 , 3780.51282051 , 4618.97435897 , 4074.35897436 , 4472.30769231 , 4312.82051282 , 4277.94871795 , 4343.07692308 , 4208.71794872 , 4071.79487179 , 3510.25641026 , 3729.23076923 , 1686.0 , 1671.0 , 2.974 , 0.0 , 0.0 , 0.0 , 0.0 , 

74.0 , 3299.48717949 , 3892.30769231 , 4125.12820513 , 3783.07692308 , 4620.0 , 4073.84615385 , 4472.30769231 , 4312.82051282 , 4281.02564103 , 4328.71794872 , 4195.8974359 , 4068.20512821 , 3505.12820513 , 3716.41025641 , 1686.0 , 1671.0 , 2.974 , 0.0 , 0.0 , 0.0 , 0.0 , 

75.0 , 3311.79487179 , 3892.82051282 , 4129.23076923 , 3782.56410256 , 4610.25641026 , 4073.84615385 , 4472.30769231 , 4320.0 , 4288.71794872 , 4343.07692308 , 4202.05128205 , 4069.74358974 , 3522.05128205 , 3729.74358974 , 1686.0 , 1671.0 , 2.977 , 0.0 , 0.0 , 0.0 , 0.0 , 

76.0 , 3313.84615385 , 3893.33333333 , 4129.23076923 , 3778.46153846 , 4613.33333333 , 4075.38461538 , 4472.30769231 , 4320.51282051 , 4286.66666667 , 4355.8974359 , 4213.33333333 , 4074.87179487 , 3527.17948718 , 3741.53846154 , 1686.0 , 1672.0 , 2.985 , 0.0 , 0.0 , 0.0 , 0.0 , 

77.0 , 3303.07692308 , 3884.61538462 , 4129.74358974 , 3775.38461538 , 4615.38461538 , 4073.33333333 , 4472.30769231 , 4316.92307692 , 4286.15384615 , 4354.87179487 , 4216.41025641 , 4075.8974359 , 3521.02564103 , 3734.87179487 , 1686.0 , 1670.0 , 3.006 , 0.0 , 0.0 , 0.0 , 0.0 , 

78.0 , 3297.94871795 , 3878.97435897 , 4133.33333333 , 3776.41025641 , 4604.1025641 , 4075.8974359 , 4472.30769231 , 4320.51282051 , 4290.25641026 , 4357.43589744 , 4216.92307692 , 4071.79487179 , 3523.07692308 , 3737.43589744 , 1685.0 , 1670.0 , 3.006 , 0.0 , 0.0 , 0.0 , 0.0 , 

79.0 , 3307.69230769 , 3885.64102564 , 4134.87179487 , 3776.41025641 , 4594.35897436 , 4087.69230769 , 4472.30769231 , 4324.1025641 , 4293.84615385 , 4355.38461538 , 4220.0 , 4071.28205128 , 3526.15384615 , 3750.25641026 , 1686.0 , 1669.0 , 3.009 , 0.0 , 0.0 , 0.0 , 0.0 , 

80.0 , 3315.8974359 , 3895.8974359 , 4136.41025641 , 3777.94871795 , 4604.1025641 , 4093.33333333 , 4472.30769231 , 4325.64102564 , 4296.41025641 , 4350.25641026 , 4225.64102564 , 4080.0 , 3532.82051282 , 3753.33333333 , 1685.0 , 1669.0 , 3.016 , 0.0 , 0.0 , 0.0 , 0.0 , 

81.0 , 3318.46153846 , 3905.12820513 , 4141.53846154 , 3784.1025641 , 4619.48717949 , 4093.84615385 , 4472.30769231 , 4332.82051282 , 4296.92307692 , 4365.64102564 , 4234.87179487 , 4088.20512821 , 3547.17948718 , 3757.94871795 , 1686.0 , 1669.0 , 3.041 , 0.0 , 0.0 , 0.0 , 0.0 , 

82.0 , 3318.46153846 , 3906.66666667 , 4142.05128205 , 3786.66666667 , 4618.97435897 , 4100.51282051 , 4472.30769231 , 4335.38461538 , 4297.43589744 , 4375.8974359 , 4242.05128205 , 4085.64102564 , 3552.82051282 , 3764.61538462 , 1687.0 , 1667.0 , 3.041 , 0.0 , 0.0 , 0.0 , 0.0 , 

83.0 , 3312.30769231 , 3895.8974359 , 4138.46153846 , 3780.51282051 , 4613.84615385 , 4101.53846154 , 4472.30769231 , 4326.66666667 , 4296.92307692 , 4355.8974359 , 4231.79487179 , 4077.43589744 , 3534.87179487 , 3752.82051282 , 1687.0 , 1668.0 , 3.041 , 0.0 , 0.0 , 0.0 , 0.0 , 

84.0 , 3307.69230769 , 3891.79487179 , 4138.46153846 , 3776.41025641 , 4624.61538462 , 4098.97435897 , 4472.30769231 , 4323.58974359 , 4288.71794872 , 4338.97435897 , 4220.51282051 , 4074.87179487 , 3526.66666667 , 3742.05128205 , 1689.0 , 1668.0 , 3.047 , 0.0 , 0.0 , 0.0 , 0.0 , 

85.0 , 3310.76923077 , 3895.38461538 , 4137.43589744 , 3774.87179487 , 4635.38461538 , 4105.64102564 , 4472.30769231 , 4327.17948718 , 4280.51282051 , 4342.56410256 , 4226.66666667 , 4077.43589744 , 3540.0 , 3753.33333333 , 1689.0 , 1669.0 , 3.072 , 0.0 , 0.0 , 0.0 , 0.0 , 

86.0 , 3312.82051282 , 3891.28205128 , 4135.8974359 , 3775.38461538 , 4618.46153846 , 4104.61538462 , 4472.30769231 , 4321.02564103 , 4281.02564103 , 4348.20512821 , 4233.33333333 , 4077.94871795 , 3546.15384615 , 3764.61538462 , 1691.0 , 1670.0 , 3.072 , 0.0 , 0.0 , 0.0 , 0.0 , 

87.0 , 3313.33333333 , 3896.41025641 , 4137.43589744 , 3782.05128205 , 4601.02564103 , 4094.35897436 , 4472.30769231 , 4317.94871795 , 4288.20512821 , 4353.33333333 , 4234.87179487 , 4077.43589744 , 3543.58974359 , 3761.53846154 , 1690.0 , 1671.0 , 3.072 , 0.0 , 0.0 , 0.0 , 0.0 , 

88.0 , 3315.8974359 , 3912.30769231 , 4139.48717949 , 3787.69230769 , 4608.71794872 , 4092.30769231 , 4472.30769231 , 4328.20512821 , 4296.41025641 , 4365.64102564 , 4240.51282051 , 4079.48717949 , 3553.33333333 , 3762.05128205 , 1689.0 , 1671.0 , 3.078 , 0.0 , 0.0 , 0.0 , 0.0 , 

89.0 , 3315.38461538 , 3906.66666667 , 4137.94871795 , 3786.15384615 , 4618.46153846 , 4092.82051282 , 4472.30769231 , 4332.30769231 , 4298.46153846 , 4373.33333333 , 4242.05128205 , 4082.56410256 , 3562.56410256 , 3762.56410256 , 1688.0 , 1672.0 , 3.104 , 0.0 , 0.0 , 0.0 , 0.0 , 

90.0 , 3313.33333333 , 3892.30769231 , 4135.8974359 , 3785.12820513 , 4611.28205128 , 4091.79487179 , 4472.30769231 , 4327.17948718 , 4296.41025641 , 4365.64102564 , 4231.79487179 , 4080.51282051 , 3552.82051282 , 3755.8974359 , 1688.0 , 1671.0 , 3.104 , 0.0 , 0.0 , 0.0 , 0.0 , 

91.0 , 3314.35897436 , 3893.84615385 , 4138.46153846 , 3785.12820513 , 4610.25641026 , 4092.82051282 , 4472.30769231 , 4325.64102564 , 4296.41025641 , 4357.43589744 , 4222.56410256 , 4076.92307692 , 3543.58974359 , 3753.84615385 , 1686.0 , 1671.0 , 3.104 , 0.0 , 0.0 , 0.0 , 0.0 , 

92.0 , 3313.84615385 , 3896.92307692 , 4138.97435897 , 3781.02564103 , 4617.94871795 , 4092.82051282 , 4472.30769231 , 4325.64102564 , 4296.92307692 , 4357.43589744 , 4222.56410256 , 4076.92307692 , 3539.48717949 , 3752.82051282 , 1686.0 , 1672.0 , 3.11 , 0.0 , 0.0 , 0.0 , 0.0 , 

93.0 , 3310.25641026 , 3892.30769231 , 4137.94871795 , 3780.51282051 , 4608.71794872 , 4091.28205128 , 4472.30769231 , 4325.64102564 , 4295.8974359 , 4355.38461538 , 4226.15384615 , 4079.48717949 , 3539.48717949 , 3752.30769231 , 1686.0 , 1672.0 , 3.134 , 0.0 , 0.0 , 0.0 , 0.0 , 

94.0 , 3311.79487179 , 3895.38461538 , 4138.97435897 , 3785.12820513 , 4602.56410256 , 4091.28205128 , 4472.30769231 , 4329.74358974 , 4297.94871795 , 4356.92307692 , 4234.87179487 , 4082.05128205 , 3547.69230769 , 3758.97435897 , 1685.0 , 1672.0 , 3.134 , 0.0 , 0.0 , 0.0 , 0.0 , 

95.0 , 3311.79487179 , 3898.46153846 , 4137.94871795 , 3785.64102564 , 4624.61538462 , 4091.79487179 , 4472.30769231 , 4329.74358974 , 4298.46153846 , 4357.94871795 , 4234.35897436 , 4081.53846154 , 3544.61538462 , 3759.48717949 , 1687.0 , 1671.0 , 3.134 , 0.0 , 0.0 , 0.0 , 0.0 , 

96.0 , 3309.23076923 , 3895.8974359 , 4135.8974359 , 3786.15384615 , 4633.84615385 , 4091.28205128 , 4472.30769231 , 4323.58974359 , 4290.76923077 , 4348.71794872 , 4224.1025641 , 4077.43589744 , 3534.87179487 , 3752.82051282 , 1686.0 , 1672.0 , 3.141 , 0.0 , 0.0 , 0.0 , 0.0 , 

97.0 , 3309.74358974 , 3901.02564103 , 4134.87179487 , 3786.66666667 , 4617.43589744 , 4089.74358974 , 4472.30769231 , 4320.51282051 , 4283.07692308 , 4346.15384615 , 4219.48717949 , 4074.87179487 , 3533.33333333 , 3750.25641026 , 1688.0 , 1672.0 , 3.163 , 0.0 , 0.0 , 0.0 , 0.0 , 

98.0 , 3314.35897436 , 3909.74358974 , 4135.38461538 , 3785.12820513 , 4620.0 , 4087.17948718 , 4472.30769231 , 4327.69230769 , 4287.17948718 , 4366.66666667 , 4227.17948718 , 4078.46153846 , 3543.58974359 , 3755.38461538 , 1688.0 , 1671.0 , 3.163 , 0.0 , 0.0 , 0.0 , 0.0 , 

99.0 , 3318.46153846 , 3911.79487179 , 4135.8974359 , 3791.28205128 , 4636.92307692 , 4088.71794872 , 4472.30769231 , 4337.43589744 , 4296.41025641 , 4383.07692308 , 4240.0 , 4084.1025641 , 3556.41025641 , 3764.1025641 , 1689.0 , 1671.0 , 3.165 , 0.0 , 0.0 , 0.0 , 0.0 , 

100.0 , 3317.43589744 , 3909.23076923 , 4132.82051282 , 3801.53846154 , 4631.79487179 , 4090.25641026 , 4472.30769231 , 4333.84615385 , 4291.79487179 , 4375.38461538 , 4245.64102564 , 4085.64102564 , 3558.46153846 , 3770.76923077 , 1689.0 , 1671.0 , 3.172 , 0.0 , 0.0 , 0.0 , 0.0 , 

101.0 , 3317.43589744 , 3909.23076923 , 4132.30769231 , 3798.46153846 , 4616.41025641 , 4084.61538462 , 4472.30769231 , 4325.12820513 , 4285.64102564 , 4369.74358974 , 4249.74358974 , 4085.64102564 , 3550.76923077 , 3767.69230769 , 1689.0 , 1671.0 , 3.195 , 0.0 , 0.0 , 0.0 , 0.0 , 

102.0 , 3317.43589744 , 3909.74358974 , 4134.35897436 , 3787.69230769 , 4617.94871795 , 4082.56410256 , 4472.30769231 , 4324.1025641 , 4291.28205128 , 4370.25641026 , 4247.17948718 , 4085.64102564 , 3549.23076923 , 3757.43589744 , 1688.0 , 1672.0 , 3.195 , 0.0 , 0.0 , 0.0 , 0.0 , 

103.0 , 3315.8974359 , 3909.23076923 , 4132.82051282 , 3782.56410256 , 4627.17948718 , 4089.23076923 , 4472.30769231 , 4325.12820513 , 4294.35897436 , 4364.61538462 , 4234.87179487 , 4081.53846154 , 3554.35897436 , 3752.30769231 , 1687.0 , 1673.0 , 3.197 , 0.0 , 0.0 , 0.0 , 0.0 , 

104.0 , 3321.02564103 , 3908.71794872 , 4131.28205128 , 3786.15384615 , 4622.56410256 , 4089.74358974 , 4472.30769231 , 4325.64102564 , 4292.82051282 , 4370.76923077 , 4231.28205128 , 4079.48717949 , 3556.92307692 , 3756.92307692 , 1686.0 , 1670.0 , 3.203 , 0.0 , 0.0 , 0.0 , 0.0 , 

105.0 , 3327.69230769 , 3908.71794872 , 4135.8974359 , 3793.84615385 , 4612.82051282 , 4083.07692308 , 4472.30769231 , 4325.12820513 , 4295.8974359 , 4380.51282051 , 4237.43589744 , 4083.07692308 , 3557.43589744 , 3760.0 , 1684.0 , 1671.0 , 3.227 , 0.0 , 0.0 , 0.0 , 0.0 , 

106.0 , 3321.53846154 , 3911.79487179 , 4133.84615385 , 3791.79487179 , 4619.48717949 , 4081.53846154 , 4472.30769231 , 4318.97435897 , 4297.43589744 , 4370.25641026 , 4234.87179487 , 4081.02564103 , 3550.76923077 , 3752.82051282 , 1685.0 , 1670.0 , 3.227 , 0.0 , 0.0 , 0.0 , 0.0 , 

107.0 , 3312.30769231 , 3912.82051282 , 4127.17948718 , 3782.56410256 , 4628.71794872 , 4078.97435897 , 4472.30769231 , 4317.94871795 , 4293.33333333 , 4361.53846154 , 4229.23076923 , 4074.87179487 , 3538.97435897 , 3751.79487179 , 1684.0 , 1671.0 , 3.227 , 0.0 , 0.0 , 0.0 , 0.0 , 

108.0 , 3323.07692308 , 3913.84615385 , 4130.76923077 , 3782.05128205 , 4620.0 , 4076.92307692 , 4472.30769231 , 4327.17948718 , 4295.8974359 , 4381.02564103 , 4238.46153846 , 4081.02564103 , 3542.56410256 , 3767.17948718 , 1687.0 , 1672.0 , 3.235 , 0.0 , 0.0 , 0.0 , 0.0 , 

109.0 , 3333.33333333 , 3912.82051282 , 4136.92307692 , 3787.17948718 , 4621.02564103 , 4081.53846154 , 4472.30769231 , 4327.17948718 , 4297.43589744 , 4382.56410256 , 4242.05128205 , 4087.17948718 , 3548.20512821 , 3772.30769231 , 1686.0 , 1671.0 , 3.259 , 0.0 , 0.0 , 0.0 , 0.0 , 

110.0 , 3324.1025641 , 3905.64102564 , 4135.38461538 , 3788.20512821 , 4639.48717949 , 4084.61538462 , 4472.30769231 , 4315.8974359 , 4289.74358974 , 4356.92307692 , 4228.20512821 , 4078.97435897 , 3538.97435897 , 3755.8974359 , 1688.0 , 1672.0 , 3.259 , 0.0 , 0.0 , 0.0 , 0.0 , 

111.0 , 3317.94871795 , 3903.07692308 , 4133.84615385 , 3791.79487179 , 4642.56410256 , 4082.56410256 , 4472.30769231 , 4313.33333333 , 4286.15384615 , 4358.46153846 , 4226.66666667 , 4075.8974359 , 3542.05128205 , 3750.76923077 , 1689.0 , 1671.0 , 3.259 , 0.0 , 0.0 , 0.0 , 0.0 , 

112.0 , 3320.51282051 , 3908.71794872 , 4136.92307692 , 3793.84615385 , 4627.69230769 , 4082.05128205 , 4472.30769231 , 4323.58974359 , 4294.87179487 , 4385.64102564 , 4244.1025641 , 4083.07692308 , 3558.46153846 , 3764.1025641 , 1689.0 , 1671.0 , 3.266 , 0.0 , 0.0 , 0.0 , 0.0 , 

113.0 , 3315.8974359 , 3909.23076923 , 4135.38461538 , 3787.17948718 , 4625.64102564 , 4078.46153846 , 4472.30769231 , 4329.23076923 , 4297.94871795 , 4385.12820513 , 4248.71794872 , 4082.56410256 , 3560.0 , 3762.05128205 , 1689.0 , 1671.0 , 3.288 , 0.0 , 0.0 , 0.0 , 0.0 , 

114.0 , 3316.41025641 , 3908.71794872 , 4132.30769231 , 3786.66666667 , 4625.64102564 , 4073.84615385 , 4472.30769231 , 4320.51282051 , 4288.20512821 , 4371.79487179 , 4239.48717949 , 4080.0 , 3550.76923077 , 3751.79487179 , 1689.0 , 1671.0 , 3.288 , 0.0 , 0.0 , 0.0 , 0.0 , 

115.0 , 3329.74358974 , 3916.41025641 , 4135.38461538 , 3797.43589744 , 4615.8974359 , 4075.8974359 , 4472.30769231 , 4314.87179487 , 4287.69230769 , 4378.97435897 , 4243.58974359 , 4085.12820513 , 3552.82051282 , 3758.46153846 , 1689.0 , 1670.0 , 3.29 , 0.0 , 0.0 , 0.0 , 0.0 , 

116.0 , 3329.23076923 , 3919.48717949 , 4132.82051282 , 3802.05128205 , 4621.02564103 , 4079.48717949 , 4472.30769231 , 4320.0 , 4294.35897436 , 4375.8974359 , 4246.66666667 , 4081.53846154 , 3561.02564103 , 3761.02564103 , 1688.0 , 1671.0 , 3.297 , 0.0 , 0.0 , 0.0 , 0.0 , 

117.0 , 3311.79487179 , 3910.76923077 , 4121.53846154 , 3791.28205128 , 4629.74358974 , 4077.94871795 , 4472.30769231 , 4320.51282051 , 4289.74358974 , 4355.8974359 , 4231.79487179 , 4075.8974359 , 3552.82051282 , 3746.66666667 , 1689.0 , 1669.0 , 3.318 , 0.0 , 0.0 , 0.0 , 0.0 , 

118.0 , 3308.71794872 , 3909.23076923 , 4118.97435897 , 3788.20512821 , 4620.51282051 , 4077.94871795 , 4472.30769231 , 4317.43589744 , 4286.15384615 , 4362.56410256 , 4225.64102564 , 4076.92307692 , 3546.15384615 , 3745.12820513 , 1686.0 , 1669.0 , 3.318 , 0.0 , 0.0 , 0.0 , 0.0 , 

119.0 , 3321.53846154 , 3921.02564103 , 4125.64102564 , 3801.02564103 , 4618.97435897 , 4084.1025641 , 4472.30769231 , 4322.56410256 , 4295.8974359 , 4378.46153846 , 4233.84615385 , 4075.38461538 , 3554.35897436 , 3755.8974359 , 1688.0 , 1669.0 , 3.322 , 0.0 , 0.0 , 0.0 , 0.0 , 

120.0 , 3329.23076923 , 3928.71794872 , 4125.64102564 , 3806.15384615 , 4634.35897436 , 4084.61538462 , 4472.30769231 , 4324.1025641 , 4299.48717949 , 4366.15384615 , 4234.35897436 , 4072.82051282 , 3555.38461538 , 3756.41025641 , 1687.0 , 1668.0 , 3.329 , 0.0 , 0.0 , 0.0 , 0.0 , 

121.0 , 3319.48717949 , 3925.64102564 , 4121.02564103 , 3800.0 , 4638.46153846 , 4076.41025641 , 4472.30769231 , 4316.92307692 , 4286.15384615 , 4355.8974359 , 4228.20512821 , 4071.79487179 , 3540.0 , 3747.69230769 , 1687.0 , 1669.0 , 3.354 , 0.0 , 0.0 , 0.0 , 0.0 , 

122.0 , 3313.33333333 , 3923.07692308 , 4123.07692308 , 3800.51282051 , 4628.71794872 , 4075.38461538 , 4472.30769231 , 4318.46153846 , 4288.20512821 , 4364.61538462 , 4229.74358974 , 4070.76923077 , 3541.53846154 , 3744.1025641 , 1687.0 , 1668.0 , 3.354 , 0.0 , 0.0 , 0.0 , 0.0 , 

123.0 , 3324.61538462 , 3923.58974359 , 4130.25641026 , 3803.58974359 , 4629.23076923 , 4085.12820513 , 4472.30769231 , 4321.02564103 , 4297.94871795 , 4367.17948718 , 4236.92307692 , 4071.79487179 , 3556.92307692 , 3748.20512821 , 1687.0 , 1669.0 , 3.354 , 0.0 , 0.0 , 0.0 , 0.0 , 

124.0 , 3333.33333333 , 3925.64102564 , 4133.84615385 , 3800.51282051 , 4632.30769231 , 4086.15384615 , 4472.30769231 , 4313.84615385 , 4288.20512821 , 4368.20512821 , 4243.58974359 , 4071.79487179 , 3555.8974359 , 3754.87179487 , 1687.0 , 1670.0 , 3.361 , 0.0 , 0.0 , 0.0 , 0.0 , 

125.0 , 3338.46153846 , 3927.17948718 , 4134.87179487 , 3801.02564103 , 4623.07692308 , 4081.02564103 , 4472.30769231 , 4314.87179487 , 4281.53846154 , 4382.05128205 , 4248.71794872 , 4072.30769231 , 3556.41025641 , 3763.07692308 , 1686.0 , 1671.0 , 3.384 , 0.0 , 0.0 , 0.0 , 0.0 , 

126.0 , 3348.20512821 , 3929.23076923 , 4134.87179487 , 3807.17948718 , 4620.51282051 , 4081.53846154 , 4472.30769231 , 4324.61538462 , 4294.35897436 , 4394.35897436 , 4246.15384615 , 4077.94871795 , 3573.33333333 , 3771.79487179 , 1687.0 , 1671.0 , 3.384 , 0.0 , 0.0 , 0.0 , 0.0 , 

127.0 , 3343.07692308 , 3930.25641026 , 4132.82051282 , 3804.61538462 , 4633.33333333 , 4083.07692308 , 4472.30769231 , 4322.05128205 , 4300.51282051 , 4388.20512821 , 4235.8974359 , 4079.48717949 , 3580.51282051 , 3771.28205128 , 1687.0 , 1672.0 , 3.384 , 0.0 , 0.0 , 0.0 , 0.0 , 

128.0 , 3326.15384615 , 3928.20512821 , 4132.82051282 , 3796.41025641 , 4640.0 , 4082.56410256 , 4472.30769231 , 4318.97435897 , 4294.87179487 , 4377.43589744 , 4233.84615385 , 4075.38461538 , 3571.28205128 , 3763.58974359 , 1687.0 , 1672.0 , 3.391 , 0.0 , 0.0 , 0.0 , 0.0 , 

0.0 , 3326.66666667 , 3925.12820513 , 4130.76923077 , 3797.43589744 , 4631.79487179 , 4082.56410256 , 4472.30769231 , 4326.66666667 , 4296.92307692 , 4384.61538462 , 4245.12820513 , 4078.97435897 , 3571.79487179 , 3763.07692308 , 1688.0 , 1673.0 , 3.415 , 0.0 , 0.0 , 0.0 , 0.0 , 

1.0 , 3334.35897436 , 3925.64102564 , 4126.15384615 , 3800.51282051 , 4624.61538462 , 4080.51282051 , 4472.30769231 , 4328.20512821 , 4300.0 , 4394.87179487 , 4250.76923077 , 4082.05128205 , 3579.48717949 , 3766.15384615 , 1688.0 , 1670.0 , 3.415 , 0.0 , 0.0 , 0.0 , 0.0 , 

2.0 , 3326.66666667 , 3922.05128205 , 4122.56410256 , 3792.82051282 , 4625.12820513 , 4081.53846154 , 4472.30769231 , 4324.61538462 , 4299.48717949 , 4384.1025641 , 4241.02564103 , 4075.38461538 , 3574.35897436 , 3753.33333333 , 1688.0 , 1670.0 , 3.415 , 0.0 , 0.0 , 0.0 , 0.0 , 

3.0 , 3321.02564103 , 3918.97435897 , 4122.05128205 , 3790.25641026 , 4634.35897436 , 4083.58974359 , 4472.30769231 , 4329.74358974 , 4302.56410256 , 4373.84615385 , 4237.43589744 , 4070.76923077 , 3567.17948718 , 3740.0 , 1688.0 , 1669.0 , 3.422 , 0.0 , 0.0 , 0.0 , 0.0 , 

4.0 , 3328.71794872 , 3924.1025641 , 4126.66666667 , 3797.94871795 , 4632.82051282 , 4078.46153846 , 4472.30769231 , 4336.92307692 , 4304.61538462 , 4384.61538462 , 4245.64102564 , 4077.43589744 , 3570.25641026 , 3753.33333333 , 1688.0 , 1669.0 , 3.446 , 0.0 , 0.0 , 0.0 , 0.0 , 

5.0 , 3332.82051282 , 3929.23076923 , 4129.74358974 , 3800.51282051 , 4623.07692308 , 4073.84615385 , 4472.30769231 , 4334.35897436 , 4303.58974359 , 4392.30769231 , 4248.71794872 , 4082.05128205 , 3575.8974359 , 3772.30769231 , 1687.0 , 1670.0 , 3.446 , 0.0 , 0.0 , 0.0 , 0.0 , 

6.0 , 3330.25641026 , 3926.15384615 , 4126.66666667 , 3796.92307692 , 4626.66666667 , 4076.41025641 , 4472.30769231 , 4327.69230769 , 4302.05128205 , 4388.71794872 , 4246.15384615 , 4080.51282051 , 3574.87179487 , 3771.79487179 , 1687.0 , 1673.0 , 3.446 , 0.0 , 0.0 , 0.0 , 0.0 , 

7.0 , 3331.79487179 , 3924.61538462 , 4128.20512821 , 3797.43589744 , 4628.20512821 , 4076.92307692 , 4472.30769231 , 4324.61538462 , 4300.51282051 , 4391.79487179 , 4246.15384615 , 4077.94871795 , 3577.94871795 , 3766.15384615 , 1687.0 , 1672.0 , 3.454 , 0.0 , 0.0 , 0.0 , 0.0 , 

8.0 , 3332.30769231 , 3930.25641026 , 4129.23076923 , 3808.20512821 , 4625.12820513 , 4074.87179487 , 4472.30769231 , 4323.07692308 , 4297.94871795 , 4396.92307692 , 4247.17948718 , 4075.38461538 , 3582.05128205 , 3762.56410256 , 1685.0 , 1672.0 , 3.477 , 0.0 , 0.0 , 0.0 , 0.0 , 

9.0 , 3332.30769231 , 3937.94871795 , 4127.17948718 , 3813.33333333 , 4632.30769231 , 4075.8974359 , 4472.30769231 , 4323.07692308 , 4296.92307692 , 4390.76923077 , 4245.12820513 , 4072.82051282 , 3582.05128205 , 3761.02564103 , 1686.0 , 1674.0 , 3.477 , 0.0 , 0.0 , 0.0 , 0.0 , 

10.0 , 3340.0 , 3942.05128205 , 4130.76923077 , 3806.15384615 , 4630.76923077 , 4076.92307692 , 4472.30769231 , 4322.56410256 , 4295.8974359 , 4383.58974359 , 4249.23076923 , 4072.30769231 , 3585.12820513 , 3769.74358974 , 1686.0 , 1674.0 , 3.477 , 0.0 , 0.0 , 0.0 , 0.0 , 

11.0 , 3341.02564103 , 3942.05128205 , 4131.79487179 , 3802.05128205 , 4617.43589744 , 4075.8974359 , 4472.30769231 , 4320.0 , 4295.8974359 , 4383.58974359 , 4250.25641026 , 4071.28205128 , 3592.82051282 , 3775.8974359 , 1686.0 , 1673.0 , 3.485 , 0.0 , 0.0 , 0.0 , 0.0 , 

12.0 , 3332.30769231 , 3941.53846154 , 4123.58974359 , 3807.17948718 , 4621.02564103 , 4075.8974359 , 4472.30769231 , 4318.97435897 , 4298.97435897 , 4378.97435897 , 4239.48717949 , 4066.66666667 , 3586.66666667 , 3765.64102564 , 1687.0 , 1672.0 , 3.506 , 0.0 , 0.0 , 0.0 , 0.0 , 

13.0 , 3324.1025641 , 3938.46153846 , 4121.53846154 , 3803.58974359 , 4638.46153846 , 4075.8974359 , 4472.30769231 , 4316.92307692 , 4295.8974359 , 4371.28205128 , 4230.25641026 , 4065.12820513 , 3574.35897436 , 3752.82051282 , 1687.0 , 1673.0 , 3.506 , 0.0 , 0.0 , 0.0 , 0.0 , 

14.0 , 3317.43589744 , 3930.76923077 , 4122.56410256 , 3796.41025641 , 4641.53846154 , 4076.41025641 , 4472.30769231 , 4314.35897436 , 4290.76923077 , 4372.82051282 , 4228.20512821 , 4068.20512821 , 3580.0 , 3744.1025641 , 1688.0 , 1671.0 , 3.508 , 0.0 , 0.0 , 0.0 , 0.0 , 

15.0 , 3314.35897436 , 3925.12820513 , 4120.51282051 , 3797.94871795 , 4623.58974359 , 4075.8974359 , 4472.30769231 , 4317.94871795 , 4301.02564103 , 4386.15384615 , 4238.97435897 , 4071.28205128 , 3594.35897436 , 3745.12820513 , 1688.0 , 1671.0 , 3.516 , 0.0 , 0.0 , 0.0 , 0.0 , 

16.0 , 3316.41025641 , 3925.64102564 , 4123.58974359 , 3795.8974359 , 4610.25641026 , 4072.30769231 , 4472.30769231 , 4317.94871795 , 4304.61538462 , 4388.71794872 , 4250.76923077 , 4072.30769231 , 3594.35897436 , 3752.82051282 , 1689.0 , 1671.0 , 3.541 , 0.0 , 0.0 , 0.0 , 0.0 , 

17.0 , 3316.41025641 , 3926.15384615 , 4123.07692308 , 3793.33333333 , 4621.02564103 , 4068.71794872 , 4472.30769231 , 4307.17948718 , 4286.15384615 , 4370.25641026 , 4248.71794872 , 4070.25641026 , 3586.15384615 , 3757.43589744 , 1688.0 , 1671.0 , 3.541 , 0.0 , 0.0 , 0.0 , 0.0 , 

18.0 , 3319.48717949 , 3923.58974359 , 4120.0 , 3798.97435897 , 4623.58974359 , 4064.61538462 , 4472.30769231 , 4306.15384615 , 4278.46153846 , 4368.20512821 , 4242.56410256 , 4068.71794872 , 3592.82051282 , 3761.53846154 , 1689.0 , 1671.0 , 3.541 , 0.0 , 0.0 , 0.0 , 0.0 , 

19.0 , 3331.28205128 , 3928.20512821 , 4124.61538462 , 3804.61538462 , 4611.79487179 , 4060.51282051 , 4472.30769231 , 4315.8974359 , 4292.30769231 , 4393.84615385 , 4249.23076923 , 4071.28205128 , 3606.15384615 , 3769.74358974 , 1687.0 , 1672.0 , 3.548 , 0.0 , 0.0 , 0.0 , 0.0 , 

20.0 , 3334.87179487 , 3936.92307692 , 4126.15384615 , 3803.07692308 , 4622.05128205 , 4061.53846154 , 4472.30769231 , 4318.97435897 , 4297.43589744 , 4398.97435897 , 4251.79487179 , 4073.33333333 , 3605.64102564 , 3770.76923077 , 1687.0 , 1673.0 , 3.573 , 0.0 , 0.0 , 0.0 , 0.0 , 

21.0 , 3328.20512821 , 3936.41025641 , 4123.58974359 , 3800.51282051 , 4630.25641026 , 4066.66666667 , 4472.30769231 , 4318.97435897 , 4292.30769231 , 4385.64102564 , 4245.64102564 , 4072.30769231 , 3600.0 , 3765.64102564 , 1687.0 , 1671.0 , 3.573 , 0.0 , 0.0 , 0.0 , 0.0 , 

22.0 , 3331.79487179 , 3935.8974359 , 4122.05128205 , 3802.56410256 , 4617.94871795 , 4067.69230769 , 4472.30769231 , 4318.97435897 , 4294.87179487 , 4386.66666667 , 4250.76923077 , 4071.28205128 , 3604.1025641 , 3767.17948718 , 1686.0 , 1673.0 , 3.573 , 0.0 , 0.0 , 0.0 , 0.0 , 

23.0 , 3341.53846154 , 3941.53846154 , 4122.56410256 , 3803.07692308 , 4613.33333333 , 4063.07692308 , 4472.30769231 , 4316.92307692 , 4297.43589744 , 4381.02564103 , 4254.35897436 , 4071.79487179 , 3606.66666667 , 3771.79487179 , 1687.0 , 1672.0 , 3.579 , 0.0 , 0.0 , 0.0 , 0.0 , 

24.0 , 3338.97435897 , 3937.94871795 , 4123.07692308 , 3798.97435897 , 4615.38461538 , 4056.41025641 , 4472.30769231 , 4317.43589744 , 4296.92307692 , 4374.87179487 , 4248.71794872 , 4071.28205128 , 3597.94871795 , 3770.76923077 , 1687.0 , 1671.0 , 3.602 , 0.0 , 0.0 , 0.0 , 0.0 , 

25.0 , 3329.74358974 , 3926.15384615 , 4122.56410256 , 3799.48717949 , 4614.87179487 , 4057.94871795 , 4472.30769231 , 4316.92307692 , 4296.92307692 , 4385.64102564 , 4241.02564103 , 4067.17948718 , 3593.33333333 , 3764.61538462 , 1688.0 , 1670.0 , 3.602 , 0.0 , 0.0 , 0.0 , 0.0 , 

26.0 , 3325.12820513 , 3923.07692308 , 4121.53846154 , 3803.58974359 , 4624.61538462 , 4069.74358974 , 4472.30769231 , 4312.30769231 , 4292.82051282 , 4378.97435897 , 4233.84615385 , 4065.64102564 , 3589.23076923 , 3755.38461538 , 1688.0 , 1670.0 , 3.602 , 0.0 , 0.0 , 0.0 , 0.0 , 

27.0 , 3324.61538462 , 3924.61538462 , 4120.0 , 3801.02564103 , 4627.69230769 , 4071.79487179 , 4472.30769231 , 4312.82051282 , 4289.74358974 , 4363.58974359 , 4235.8974359 , 4067.69230769 , 3584.61538462 , 3748.20512821 , 1689.0 , 1670.0 , 3.668 , 0.0 , 0.0 , 0.0 , 0.0 , 

28.0 , 3329.74358974 , 3925.12820513 , 4120.51282051 , 3798.46153846 , 4613.33333333 , 4064.1025641 , 4472.30769231 , 4318.97435897 , 4295.8974359 , 4382.05128205 , 4247.69230769 , 4069.74358974 , 3595.8974359 , 3756.92307692 , 1688.0 , 1670.0 , 3.697 , 0.0 , 0.0 , 0.0 , 0.0 , 

29.0 , 3333.33333333 , 3933.33333333 , 4123.58974359 , 3801.53846154 , 4614.87179487 , 4065.64102564 , 4472.30769231 , 4321.02564103 , 4300.0 , 4402.05128205 , 4257.43589744 , 4071.28205128 , 3612.30769231 , 3769.74358974 , 1689.0 , 1670.0 , 3.697 , 0.0 , 0.0 , 0.0 , 0.0 , 

30.0 , 3326.66666667 , 3943.58974359 , 4120.51282051 , 3800.0 , 4627.69230769 , 4069.23076923 , 4472.30769231 , 4316.41025641 , 4295.8974359 , 4393.84615385 , 4250.25641026 , 4069.74358974 , 3604.1025641 , 3763.07692308 , 1688.0 , 1669.0 , 3.697 , 0.0 , 0.0 , 0.0 , 0.0 , 

31.0 , 3322.56410256 , 3941.53846154 , 4116.41025641 , 3796.41025641 , 4620.0 , 4066.15384615 , 4472.30769231 , 4313.33333333 , 4293.84615385 , 4387.17948718 , 4237.43589744 , 4067.69230769 , 3586.15384615 , 3751.28205128 , 1688.0 , 1670.0 , 3.697 , 0.0 , 0.0 , 0.0 , 0.0 , 

32.0 , 3329.74358974 , 3931.79487179 , 4118.46153846 , 3801.02564103 , 4609.74358974 , 4064.1025641 , 4472.30769231 , 4314.87179487 , 4293.84615385 , 4386.15384615 , 4238.97435897 , 4066.15384615 , 3587.17948718 , 3754.35897436 , 1687.0 , 1670.0 , 3.697 , 0.0 , 0.0 , 0.0 , 0.0 , 

33.0 , 3330.76923077 , 3928.20512821 , 4121.02564103 , 3803.07692308 , 4614.35897436 , 4066.66666667 , 4472.30769231 , 4318.97435897 , 4288.20512821 , 4376.41025641 , 4249.23076923 , 4064.61538462 , 3594.87179487 , 3757.43589744 , 1686.0 , 1671.0 , 3.697 , 0.0 , 0.0 , 0.0 , 0.0 , 

34.0 , 3321.02564103 , 3929.74358974 , 4117.94871795 , 3796.41025641 , 4617.43589744 , 4067.69230769 , 4472.30769231 , 4320.0 , 4287.17948718 , 4369.74358974 , 4240.51282051 , 4062.05128205 , 3590.76923077 , 3748.20512821 , 1687.0 , 1669.0 , 3.697 , 0.0 , 0.0 , 0.0 , 0.0 , 

35.0 , 3314.35897436 , 3928.71794872 , 4111.79487179 , 3788.71794872 , 4615.8974359 , 4065.12820513 , 4472.30769231 , 4317.43589744 , 4291.79487179 , 4369.74358974 , 4225.12820513 , 4060.0 , 3580.0 , 3739.48717949 , 1685.0 , 1670.0 , 3.697 , 0.0 , 0.0 , 0.0 , 0.0 , 

36.0 , 3315.8974359 , 3927.69230769 , 4107.17948718 , 3787.17948718 , 4616.92307692 , 4060.51282051 , 4472.30769231 , 4318.46153846 , 4293.84615385 , 4367.17948718 , 4230.25641026 , 4055.8974359 , 3571.28205128 , 3736.92307692 , 1686.0 , 1669.0 , 3.697 , 0.0 , 0.0 , 0.0 , 0.0 , 

37.0 , 3314.87179487 , 3928.20512821 , 4106.66666667 , 3792.30769231 , 4618.46153846 , 4063.07692308 , 4472.30769231 , 4321.02564103 , 4292.30769231 , 4366.15384615 , 4230.25641026 , 4051.79487179 , 3569.74358974 , 3734.35897436 , 1685.0 , 1669.0 , 3.697 , 0.0 , 0.0 , 0.0 , 0.0 , 

38.0 , 3313.33333333 , 3927.69230769 , 4109.23076923 , 3796.41025641 , 4617.43589744 , 4067.17948718 , 4472.30769231 , 4317.94871795 , 4289.23076923 , 4371.79487179 , 4219.48717949 , 4053.33333333 , 3581.02564103 , 3737.94871795 , 1685.0 , 1669.0 , 3.697 , 0.0 , 0.0 , 0.0 , 0.0 , 

39.0 , 3323.58974359 , 3932.82051282 , 4112.30769231 , 3804.1025641 , 4614.87179487 , 4066.15384615 , 4472.30769231 , 4315.8974359 , 4288.71794872 , 4380.0 , 4227.69230769 , 4061.02564103 , 3601.02564103 , 3749.23076923 , 1685.0 , 1670.0 , 3.727 , 0.0 , 0.0 , 0.0 , 0.0 , 

40.0 , 3332.82051282 , 3941.02564103 , 4117.43589744 , 3814.35897436 , 4614.87179487 , 4065.64102564 , 4472.30769231 , 4316.92307692 , 4286.15384615 , 4375.38461538 , 4240.51282051 , 4063.58974359 , 3607.69230769 , 3749.74358974 , 1687.0 , 1671.0 , 3.727 , 0.0 , 0.0 , 0.0 , 0.0 , 

41.0 , 3325.12820513 , 3940.51282051 , 4118.97435897 , 3809.74358974 , 4618.46153846 , 4068.20512821 , 4472.30769231 , 4314.35897436 , 4281.53846154 , 4364.1025641 , 4234.35897436 , 4058.46153846 , 3594.87179487 , 3737.43589744 , 1686.0 , 1672.0 , 3.727 , 0.0 , 0.0 , 0.0 , 0.0 , 

42.0 , 3320.51282051 , 3938.97435897 , 4116.41025641 , 3800.0 , 4617.94871795 , 4069.23076923 , 4472.30769231 , 4310.76923077 , 4282.56410256 , 4370.76923077 , 4226.66666667 , 4058.46153846 , 3591.79487179 , 3739.48717949 , 1686.0 , 1674.0 , 3.727 , 0.0 , 0.0 , 0.0 , 0.0 , 

43.0 , 3328.71794872 , 3942.56410256 , 4117.43589744 , 3801.53846154 , 4612.82051282 , 4066.66666667 , 4472.30769231 , 4312.30769231 , 4286.66666667 , 4383.07692308 , 4234.87179487 , 4063.58974359 , 3605.64102564 , 3751.28205128 , 1687.0 , 1673.0 , 3.757 , 0.0 , 0.0 , 0.0 , 0.0 , 

44.0 , 3330.76923077 , 3946.15384615 , 4120.51282051 , 3806.15384615 , 4612.82051282 , 4065.64102564 , 4472.30769231 , 4313.33333333 , 4285.12820513 , 4373.33333333 , 4238.97435897 , 4064.61538462 , 3605.12820513 , 3751.28205128 , 1686.0 , 1674.0 , 3.757 , 0.0 , 0.0 , 0.0 , 0.0 , 

45.0 , 3320.51282051 , 3945.12820513 , 4120.0 , 3800.51282051 , 4616.41025641 , 4071.79487179 , 4472.30769231 , 4311.28205128 , 4283.58974359 , 4355.38461538 , 4224.61538462 , 4060.51282051 , 3588.71794872 , 3738.46153846 , 1686.0 , 1672.0 , 3.757 , 0.0 , 0.0 , 0.0 , 0.0 , 

46.0 , 3314.35897436 , 3943.07692308 , 4119.48717949 , 3797.43589744 , 4617.43589744 , 4078.46153846 , 4472.30769231 , 4312.82051282 , 4288.20512821 , 4355.8974359 , 4214.87179487 , 4055.8974359 , 3585.12820513 , 3731.28205128 , 1685.0 , 1671.0 , 3.759 , 0.0 , 0.0 , 0.0 , 0.0 , 

47.0 , 3316.41025641 , 3942.56410256 , 4122.56410256 , 3798.97435897 , 4615.38461538 , 4080.51282051 , 4472.30769231 , 4317.94871795 , 4291.79487179 , 4361.02564103 , 4224.61538462 , 4056.41025641 , 3598.97435897 , 3741.02564103 , 1686.0 , 1671.0 , 3.787 , 0.0 , 0.0 , 0.0 , 0.0 , 

48.0 , 3317.94871795 , 3944.1025641 , 4123.07692308 , 3798.97435897 , 4613.84615385 , 4085.12820513 , 4472.30769231 , 4320.0 , 4291.28205128 , 4357.94871795 , 4236.41025641 , 4060.51282051 , 3605.64102564 , 3754.87179487 , 1685.0 , 1670.0 , 3.787 , 0.0 , 0.0 , 0.0 , 0.0 , 

49.0 , 3315.38461538 , 3949.23076923 , 4121.53846154 , 3800.0 , 4615.8974359 , 4092.82051282 , 4472.30769231 , 4315.8974359 , 4286.66666667 , 4356.41025641 , 4237.43589744 , 4062.56410256 , 3601.53846154 , 3753.84615385 , 1686.0 , 1671.0 , 3.787 , 0.0 , 0.0 , 0.0 , 0.0 , 

50.0 , 3314.35897436 , 3950.25641026 , 4120.51282051 , 3800.51282051 , 4614.87179487 , 4093.84615385 , 4472.30769231 , 4311.28205128 , 4282.05128205 , 4351.28205128 , 4229.74358974 , 4061.02564103 , 3601.02564103 , 3745.12820513 , 1687.0 , 1671.0 , 3.79 , 0.0 , 0.0 , 0.0 , 0.0 , 

51.0 , 3316.41025641 , 3945.64102564 , 4118.97435897 , 3800.51282051 , 4617.94871795 , 4095.8974359 , 4472.30769231 , 4311.28205128 , 4281.53846154 , 4347.69230769 , 4217.43589744 , 4056.92307692 , 3606.15384615 , 3742.56410256 , 1688.0 , 1671.0 , 3.82 , 0.0 , 0.0 , 0.0 , 0.0 , 

52.0 , 3313.84615385 , 3947.69230769 , 4117.43589744 , 3800.0 , 4626.66666667 , 4096.41025641 , 4472.30769231 , 4310.76923077 , 4282.05128205 , 4346.15384615 , 4214.87179487 , 4054.87179487 , 3604.61538462 , 3745.12820513 , 1688.0 , 1670.0 , 3.82 , 0.0 , 0.0 , 0.0 , 0.0 , 

53.0 , 3317.43589744 , 3954.87179487 , 4117.94871795 , 3800.0 , 4623.07692308 , 4086.66666667 , 4472.30769231 , 4309.74358974 , 4280.0 , 4341.53846154 , 4224.61538462 , 4059.48717949 , 3604.1025641 , 3748.71794872 , 1688.0 , 1672.0 , 3.82 , 0.0 , 0.0 , 0.0 , 0.0 , 

54.0 , 3329.23076923 , 3959.48717949 , 4121.02564103 , 3801.53846154 , 4613.33333333 , 4081.02564103 , 4472.30769231 , 4311.28205128 , 4280.0 , 4346.66666667 , 4233.33333333 , 4063.07692308 , 3614.87179487 , 3757.43589744 , 1688.0 , 1672.0 , 3.822 , 0.0 , 0.0 , 0.0 , 0.0 , 

55.0 , 3334.35897436 , 3964.61538462 , 4121.53846154 , 3801.53846154 , 4613.33333333 , 4085.64102564 , 4472.30769231 , 4312.82051282 , 4286.66666667 , 4363.07692308 , 4237.94871795 , 4064.1025641 , 3624.61538462 , 3767.69230769 , 1688.0 , 1673.0 , 3.849 , 0.0 , 0.0 , 0.0 , 0.0 , 

56.0 , 3332.30769231 , 3971.28205128 , 4119.48717949 , 3802.56410256 , 4614.87179487 , 4085.64102564 , 4472.30769231 , 4312.30769231 , 4287.69230769 , 4369.74358974 , 4238.97435897 , 4065.64102564 , 3623.07692308 , 3770.25641026 , 1688.0 , 1673.0 , 3.849 , 0.0 , 0.0 , 0.0 , 0.0 , 

57.0 , 3332.82051282 , 3970.76923077 , 4118.97435897 , 3809.74358974 , 4610.25641026 , 4080.51282051 , 4472.30769231 , 4310.76923077 , 4282.05128205 , 4367.17948718 , 4236.41025641 , 4062.56410256 , 3621.53846154 , 3766.15384615 , 1687.0 , 1674.0 , 3.849 , 0.0 , 0.0 , 0.0 , 0.0 , 

58.0 , 3330.76923077 , 3964.61538462 , 4120.0 , 3812.30769231 , 4606.15384615 , 4078.97435897 , 4472.30769231 , 4311.28205128 , 4282.56410256 , 4366.66666667 , 4235.8974359 , 4060.0 , 3620.51282051 , 3760.0 , 1686.0 , 1675.0 , 3.853 , 0.0 , 0.0 , 0.0 , 0.0 , 

59.0 , 3327.17948718 , 3957.94871795 , 4121.53846154 , 3803.07692308 , 4600.51282051 , 4077.94871795 , 4472.30769231 , 4312.82051282 , 4285.64102564 , 4360.0 , 4235.8974359 , 4065.12820513 , 3608.71794872 , 3754.87179487 , 1685.0 , 1674.0 , 3.877 , 0.0 , 0.0 , 0.0 , 0.0 , 

60.0 , 3331.28205128 , 3960.51282051 , 4121.02564103 , 3800.0 , 4596.41025641 , 4075.38461538 , 4472.30769231 , 4311.79487179 , 4282.56410256 , 4354.35897436 , 4235.8974359 , 4070.76923077 , 3606.15384615 , 3760.0 , 1684.0 , 1673.0 , 3.877 , 0.0 , 0.0 , 0.0 , 0.0 , 

61.0 , 3334.35897436 , 3967.17948718 , 4120.0 , 3805.12820513 , 4598.97435897 , 4074.87179487 , 4472.30769231 , 4311.79487179 , 4280.51282051 , 4356.92307692 , 4236.41025641 , 4066.66666667 , 3621.53846154 , 3769.23076923 , 1685.0 , 1673.0 , 3.877 , 0.0 , 0.0 , 0.0 , 0.0 , 

62.0 , 3329.23076923 , 3961.02564103 , 4119.48717949 , 3801.02564103 , 4605.64102564 , 4075.8974359 , 4472.30769231 , 4314.87179487 , 4284.1025641 , 4356.92307692 , 4234.87179487 , 4062.05128205 , 3622.56410256 , 3766.15384615 , 1685.0 , 1672.0 , 3.886 , 0.0 , 0.0 , 0.0 , 0.0 , 

63.0 , 3326.66666667 , 3955.38461538 , 4117.94871795 , 3797.43589744 , 4616.41025641 , 4075.8974359 , 4472.30769231 , 4313.84615385 , 4283.58974359 , 4356.41025641 , 4233.84615385 , 4062.05128205 , 3610.76923077 , 3757.94871795 , 1685.0 , 1674.0 , 3.908 , 0.0 , 0.0 , 0.0 , 0.0 , 

64.0 , 3329.23076923 , 3966.66666667 , 4118.97435897 , 3806.15384615 , 4620.51282051 , 4074.35897436 , 4472.30769231 , 4309.74358974 , 4280.51282051 , 4356.41025641 , 4232.30769231 , 4061.53846154 , 3613.33333333 , 3757.94871795 , 1688.0 , 1671.0 , 3.908 , 0.0 , 0.0 , 0.0 , 0.0 , 

65.0 , 3331.79487179 , 3977.43589744 , 4122.56410256 , 3815.8974359 , 4605.12820513 , 4073.84615385 , 4472.30769231 , 4309.74358974 , 4280.51282051 , 4355.38461538 , 4235.38461538 , 4061.53846154 , 3622.56410256 , 3764.61538462 , 1687.0 , 1673.0 , 3.908 , 0.0 , 0.0 , 0.0 , 0.0 , 

66.0 , 3332.82051282 , 3975.8974359 , 4123.07692308 , 3817.43589744 , 4593.84615385 , 4071.28205128 , 4472.30769231 , 4312.30769231 , 4281.02564103 , 4353.33333333 , 4244.61538462 , 4063.07692308 , 3625.64102564 , 3767.17948718 , 1689.0 , 1674.0 , 3.916 , 0.0 , 0.0 , 0.0 , 0.0 , 

67.0 , 3332.30769231 , 3971.28205128 , 4120.51282051 , 3814.87179487 , 4610.76923077 , 4068.71794872 , 4472.30769231 , 4310.25641026 , 4281.02564103 , 4347.17948718 , 4247.17948718 , 4063.58974359 , 3623.07692308 , 3763.07692308 , 1689.0 , 1673.0 , 3.938 , 0.0 , 0.0 , 0.0 , 0.0 , 

68.0 , 3336.92307692 , 3971.28205128 , 4121.53846154 , 3814.35897436 , 4619.48717949 , 4070.76923077 , 4472.30769231 , 4309.23076923 , 4278.97435897 , 4349.74358974 , 4242.56410256 , 4067.17948718 , 3620.51282051 , 3767.17948718 , 1689.0 , 1674.0 , 3.938 , 0.0 , 0.0 , 0.0 , 0.0 , 

69.0 , 3346.15384615 , 3977.94871795 , 4122.56410256 , 3817.94871795 , 4599.48717949 , 4073.33333333 , 4472.30769231 , 4311.28205128 , 4278.97435897 , 4363.07692308 , 4243.07692308 , 4071.28205128 , 3627.17948718 , 3784.61538462 , 1687.0 , 1674.0 , 3.94 , 0.0 , 0.0 , 0.0 , 0.0 , 

70.0 , 3351.28205128 , 3983.58974359 , 4126.15384615 , 3821.02564103 , 4592.30769231 , 4073.33333333 , 4472.30769231 , 4316.41025641 , 4283.07692308 , 4365.12820513 , 4246.66666667 , 4072.30769231 , 3633.84615385 , 3790.25641026 , 1687.0 , 1673.0 , 3.947 , 0.0 , 0.0 , 0.0 , 0.0 , 

71.0 , 3348.20512821 , 3982.56410256 , 4129.74358974 , 3820.0 , 4611.28205128 , 4075.38461538 , 4472.30769231 , 4318.46153846 , 4286.15384615 , 4366.66666667 , 4246.66666667 , 4070.25641026 , 3638.46153846 , 3784.61538462 , 1686.0 , 1670.0 , 3.971 , 0.0 , 0.0 , 0.0 , 0.0 , 

72.0 , 3345.64102564 , 3982.56410256 , 4125.64102564 , 3825.12820513 , 4618.97435897 , 4079.48717949 , 4472.30769231 , 4315.38461538 , 4283.07692308 , 4377.43589744 , 4249.23076923 , 4070.25641026 , 3649.23076923 , 3784.1025641 , 1686.0 , 1672.0 , 3.971 , 0.0 , 0.0 , 0.0 , 0.0 , 

73.0 , 3347.69230769 , 3982.05128205 , 4121.53846154 , 3829.74358974 , 4609.74358974 , 4078.46153846 , 4472.30769231 , 4313.33333333 , 4281.02564103 , 4372.82051282 , 4252.82051282 , 4071.28205128 , 3655.38461538 , 3781.53846154 , 1686.0 , 1670.0 , 3.971 , 0.0 , 0.0 , 0.0 , 0.0 , 

74.0 , 3345.64102564 , 3977.94871795 , 4122.56410256 , 3822.05128205 , 4603.07692308 , 4075.38461538 , 4472.30769231 , 4314.35897436 , 4283.58974359 , 4358.46153846 , 4246.15384615 , 4071.28205128 , 3641.02564103 , 3774.35897436 , 1686.0 , 1672.0 , 3.979 , 0.0 , 0.0 , 0.0 , 0.0 , 

75.0 , 3334.35897436 , 3973.84615385 , 4121.53846154 , 3812.82051282 , 4600.0 , 4075.38461538 , 4472.30769231 , 4312.82051282 , 4282.05128205 , 4354.87179487 , 4231.79487179 , 4067.17948718 , 3623.07692308 , 3768.20512821 , 1688.0 , 1672.0 , 3.999 , 0.0 , 0.0 , 0.0 , 0.0 , 

76.0 , 3325.12820513 , 3971.28205128 , 4118.46153846 , 3814.35897436 , 4607.17948718 , 4072.82051282 , 4472.30769231 , 4308.71794872 , 4276.41025641 , 4353.33333333 , 4222.56410256 , 4062.05128205 , 3614.87179487 , 3762.05128205 , 1687.0 , 1673.0 , 3.999 , 0.0 , 0.0 , 0.0 , 0.0 , 

77.0 , 3331.79487179 , 3978.97435897 , 4120.0 , 3815.8974359 , 4614.35897436 , 4066.15384615 , 4472.30769231 , 4309.74358974 , 4276.41025641 , 4352.30769231 , 4228.20512821 , 4068.20512821 , 3620.51282051 , 3764.61538462 , 1689.0 , 1673.0 , 4.002 , 0.0 , 0.0 , 0.0 , 0.0 , 

78.0 , 3343.07692308 , 3986.15384615 , 4122.56410256 , 3814.87179487 , 4605.64102564 , 4064.1025641 , 4472.30769231 , 4312.30769231 , 4277.43589744 , 4364.1025641 , 4241.02564103 , 4075.8974359 , 3634.35897436 , 3775.38461538 , 1688.0 , 1672.0 , 4.01 , 0.0 , 0.0 , 0.0 , 0.0 , 

79.0 , 3344.1025641 , 3977.94871795 , 4123.07692308 , 3821.02564103 , 4606.15384615 , 4066.15384615 , 4472.30769231 , 4312.82051282 , 4276.92307692 , 4367.69230769 , 4246.66666667 , 4073.84615385 , 3636.92307692 , 3777.94871795 , 1688.0 , 1673.0 , 4.03 , 0.0 , 0.0 , 0.0 , 0.0 , 

80.0 , 3344.61538462 , 3977.43589744 , 4122.56410256 , 3830.25641026 , 4620.51282051 , 4065.64102564 , 4472.30769231 , 4311.79487179 , 4276.92307692 , 4357.94871795 , 4248.20512821 , 4071.79487179 , 3634.87179487 , 3775.8974359 , 1688.0 , 1671.0 , 4.03 , 0.0 , 0.0 , 0.0 , 0.0 , 

81.0 , 3353.84615385 , 3991.79487179 , 4123.07692308 , 3837.43589744 , 4621.02564103 , 4066.15384615 , 4472.30769231 , 4313.84615385 , 4278.46153846 , 4363.07692308 , 4250.25641026 , 4074.87179487 , 3644.61538462 , 3783.58974359 , 1687.0 , 1670.0 , 4.032 , 0.0 , 0.0 , 0.0 , 0.0 , 

82.0 , 3364.1025641 , 3997.94871795 , 4125.12820513 , 3836.92307692 , 4612.82051282 , 4067.17948718 , 4472.30769231 , 4319.48717949 , 4281.53846154 , 4380.51282051 , 4249.74358974 , 4076.41025641 , 3656.41025641 , 3791.79487179 , 1686.0 , 1670.0 , 4.041 , 0.0 , 0.0 , 0.0 , 0.0 , 

83.0 , 3362.56410256 , 3999.48717949 , 4127.69230769 , 3833.33333333 , 4613.33333333 , 4064.61538462 , 4472.30769231 , 4321.02564103 , 4283.58974359 , 4388.20512821 , 4251.79487179 , 4076.41025641 , 3657.94871795 , 3792.30769231 , 1686.0 , 1669.0 , 4.061 , 0.0 , 0.0 , 0.0 , 0.0 , 

84.0 , 3352.82051282 , 4002.56410256 , 4126.15384615 , 3831.28205128 , 4612.30769231 , 4070.76923077 , 4472.30769231 , 4316.92307692 , 4281.53846154 , 4378.97435897 , 4252.82051282 , 4077.43589744 , 3654.35897436 , 3784.61538462 , 1687.0 , 1669.0 , 4.061 , 0.0 , 0.0 , 0.0 , 0.0 , 

85.0 , 3342.56410256 , 3993.33333333 , 4118.97435897 , 3827.69230769 , 4612.82051282 , 4076.41025641 , 4472.30769231 , 4312.30769231 , 4279.48717949 , 4366.66666667 , 4239.48717949 , 4072.30769231 , 3644.1025641 , 3772.82051282 , 1686.0 , 1671.0 , 4.065 , 0.0 , 0.0 , 0.0 , 0.0 , 

86.0 , 3338.46153846 , 3988.20512821 , 4117.43589744 , 3828.20512821 , 4618.46153846 , 4070.76923077 , 4472.30769231 , 4310.76923077 , 4279.48717949 , 4363.58974359 , 4234.35897436 , 4069.23076923 , 3636.41025641 , 3765.64102564 , 1687.0 , 1669.0 , 4.072 , 0.0 , 0.0 , 0.0 , 0.0 , 

87.0 , 3345.12820513 , 3997.94871795 , 4122.05128205 , 3833.33333333 , 4616.92307692 , 4068.71794872 , 4472.30769231 , 4312.30769231 , 4279.48717949 , 4369.23076923 , 4248.20512821 , 4073.84615385 , 3642.05128205 , 3769.74358974 , 1686.0 , 1670.0 , 4.097 , 0.0 , 0.0 , 0.0 , 0.0 , 

88.0 , 3348.71794872 , 3998.46153846 , 4123.58974359 , 3829.23076923 , 4614.87179487 , 4076.41025641 , 4472.30769231 , 4311.79487179 , 4279.48717949 , 4374.87179487 , 4244.1025641 , 4074.35897436 , 3643.07692308 , 3773.33333333 , 1687.0 , 1671.0 , 4.097 , 0.0 , 0.0 , 0.0 , 0.0 , 

89.0 , 3345.12820513 , 3991.28205128 , 4121.02564103 , 3821.53846154 , 4617.94871795 , 4077.94871795 , 4472.30769231 , 4309.23076923 , 4278.97435897 , 4371.28205128 , 4233.33333333 , 4069.74358974 , 3633.33333333 , 3768.71794872 , 1687.0 , 1672.0 , 4.097 , 0.0 , 0.0 , 0.0 , 0.0 , 

90.0 , 3346.66666667 , 3999.48717949 , 4120.51282051 , 3827.69230769 , 4614.35897436 , 4070.76923077 , 4472.30769231 , 4311.79487179 , 4278.97435897 , 4375.8974359 , 4244.1025641 , 4070.25641026 , 3637.94871795 , 3767.69230769 , 1688.0 , 1673.0 , 4.104 , 0.0 , 0.0 , 0.0 , 0.0 , 

91.0 , 3350.76923077 , 4005.12820513 , 4123.58974359 , 3835.8974359 , 4611.79487179 , 4068.71794872 , 4472.30769231 , 4313.84615385 , 4280.0 , 4386.15384615 , 4247.17948718 , 4072.82051282 , 3655.8974359 , 3773.84615385 , 1688.0 , 1672.0 , 4.127 , 0.0 , 0.0 , 0.0 , 0.0 , 

92.0 , 3342.56410256 , 3996.41025641 , 4122.56410256 , 3828.71794872 , 4618.97435897 , 4069.23076923 , 4472.30769231 , 4310.76923077 , 4279.48717949 , 4374.87179487 , 4231.28205128 , 4070.76923077 , 3655.8974359 , 3765.12820513 , 1687.0 , 1673.0 , 4.127 , 0.0 , 0.0 , 0.0 , 0.0 , 

93.0 , 3329.23076923 , 3992.30769231 , 4117.43589744 , 3816.41025641 , 4624.1025641 , 4067.69230769 , 4472.30769231 , 4307.69230769 , 4276.41025641 , 4352.30769231 , 4222.56410256 , 4068.20512821 , 3646.66666667 , 3746.66666667 , 1688.0 , 1672.0 , 4.127 , 0.0 , 0.0 , 0.0 , 0.0 , 

94.0 , 3328.71794872 , 4000.51282051 , 4116.92307692 , 3817.43589744 , 4620.51282051 , 4066.66666667 , 4472.30769231 , 4309.23076923 , 4276.92307692 , 4355.38461538 , 4226.66666667 , 4064.61538462 , 3647.69230769 , 3749.23076923 , 1687.0 , 1672.0 , 4.135 , 0.0 , 0.0 , 0.0 , 0.0 , 

95.0 , 3338.46153846 , 4003.07692308 , 4121.02564103 , 3827.69230769 , 4615.8974359 , 4065.12820513 , 4472.30769231 , 4316.92307692 , 4283.58974359 , 4376.41025641 , 4240.0 , 4066.66666667 , 3653.84615385 , 3761.02564103 , 1687.0 , 1671.0 , 4.158 , 0.0 , 0.0 , 0.0 , 0.0 , 

96.0 , 3337.94871795 , 3996.92307692 , 4120.51282051 , 3832.30769231 , 4617.94871795 , 4067.17948718 , 4472.30769231 , 4318.46153846 , 4284.1025641 , 4374.87179487 , 4244.61538462 , 4071.79487179 , 3657.43589744 , 3757.94871795 , 1687.0 , 1672.0 , 4.158 , 0.0 , 0.0 , 0.0 , 0.0 , 

97.0 , 3329.23076923 , 3996.41025641 , 4116.92307692 , 3829.74358974 , 4627.69230769 , 4072.30769231 , 4472.30769231 , 4308.71794872 , 4275.8974359 , 4356.41025641 , 4231.28205128 , 4070.25641026 , 3648.20512821 , 3753.33333333 , 1688.0 , 1671.0 , 4.158 , 0.0 , 0.0 , 0.0 , 0.0 , 

98.0 , 3334.35897436 , 4001.02564103 , 4117.43589744 , 3828.20512821 , 4634.35897436 , 4074.35897436 , 4472.30769231 , 4305.12820513 , 4275.38461538 , 4352.82051282 , 4224.61538462 , 4068.71794872 , 3636.41025641 , 3755.38461538 , 1687.0 , 1672.0 , 4.166 , 0.0 , 0.0 , 0.0 , 0.0 , 

99.0 , 3346.66666667 , 4001.53846154 , 4120.51282051 , 3830.25641026 , 4634.35897436 , 4070.76923077 , 4472.30769231 , 4310.76923077 , 4276.92307692 , 4368.20512821 , 4232.30769231 , 4071.79487179 , 3640.51282051 , 3755.8974359 , 1688.0 , 1674.0 , 4.187 , 0.0 , 0.0 , 0.0 , 0.0 , 

100.0 , 3348.20512821 , 4005.64102564 , 4122.05128205 , 3832.82051282 , 4633.84615385 , 4068.20512821 , 4472.30769231 , 4312.82051282 , 4272.82051282 , 4381.53846154 , 4242.05128205 , 4073.33333333 , 3662.05128205 , 3762.56410256 , 1688.0 , 1672.0 , 4.187 , 0.0 , 0.0 , 0.0 , 0.0 , 

101.0 , 3344.61538462 , 4014.87179487 , 4121.02564103 , 3833.84615385 , 4628.20512821 , 4068.20512821 , 4472.30769231 , 4311.79487179 , 4276.41025641 , 4380.51282051 , 4248.71794872 , 4072.82051282 , 3671.79487179 , 3769.74358974 , 1688.0 , 1674.0 , 4.19 , 0.0 , 0.0 , 0.0 , 0.0 , 

102.0 , 3345.64102564 , 4013.33333333 , 4120.51282051 , 3831.28205128 , 4617.94871795 , 4065.64102564 , 4472.30769231 , 4312.82051282 , 4284.61538462 , 4375.8974359 , 4248.20512821 , 4070.76923077 , 3661.02564103 , 3761.02564103 , 1689.0 , 1673.0 , 4.198 , 0.0 , 0.0 , 0.0 , 0.0 , 

103.0 , 3346.66666667 , 4011.28205128 , 4122.05128205 , 3834.87179487 , 4614.35897436 , 4065.64102564 , 4472.30769231 , 4312.82051282 , 4281.53846154 , 4374.35897436 , 4244.61538462 , 4069.23076923 , 3655.8974359 , 3753.33333333 , 1688.0 , 1673.0 , 4.221 , 0.0 , 0.0 , 0.0 , 0.0 , 

104.0 , 3345.64102564 , 4017.43589744 , 4121.02564103 , 3842.56410256 , 4618.97435897 , 4065.64102564 , 4472.30769231 , 4312.82051282 , 4275.38461538 , 4372.82051282 , 4245.64102564 , 4069.74358974 , 3661.53846154 , 3758.97435897 , 1689.0 , 1672.0 , 4.221 , 0.0 , 0.0 , 0.0 , 0.0 , 

105.0 , 3345.64102564 , 4016.41025641 , 4121.02564103 , 3837.94871795 , 4628.71794872 , 4068.20512821 , 4472.30769231 , 4311.79487179 , 4277.94871795 , 4369.74358974 , 4237.94871795 , 4068.20512821 , 3654.87179487 , 3757.94871795 , 1688.0 , 1673.0 , 4.221 , 0.0 , 0.0 , 0.0 , 0.0 , 

106.0 , 3345.64102564 , 4011.79487179 , 4120.0 , 3829.74358974 , 4634.87179487 , 4066.66666667 , 4472.30769231 , 4311.28205128 , 4277.94871795 , 4369.74358974 , 4230.25641026 , 4066.15384615 , 3648.20512821 , 3752.82051282 , 1689.0 , 1672.0 , 4.228 , 0.0 , 0.0 , 0.0 , 0.0 , 

107.0 , 3345.64102564 , 4016.92307692 , 4120.51282051 , 3832.30769231 , 4630.76923077 , 4062.56410256 , 4472.30769231 , 4312.82051282 , 4276.41025641 , 4372.30769231 , 4243.07692308 , 4067.69230769 , 3662.56410256 , 3758.46153846 , 1689.0 , 1671.0 , 4.25 , 0.0 , 0.0 , 0.0 , 0.0 , 

108.0 , 3345.12820513 , 4018.97435897 , 4121.53846154 , 3835.8974359 , 4635.8974359 , 4068.71794872 , 4472.30769231 , 4310.25641026 , 4276.41025641 , 4365.12820513 , 4248.71794872 , 4068.20512821 , 3670.76923077 , 3761.53846154 , 1690.0 , 1672.0 , 4.25 , 0.0 , 0.0 , 0.0 , 0.0 , 

109.0 , 3345.12820513 , 4016.41025641 , 4120.51282051 , 3832.30769231 , 4643.07692308 , 4073.84615385 , 4472.30769231 , 4304.1025641 , 4272.82051282 , 4364.61538462 , 4241.02564103 , 4068.71794872 , 3664.61538462 , 3758.46153846 , 1689.0 , 1672.0 , 4.252 , 0.0 , 0.0 , 0.0 , 0.0 , 

110.0 , 3346.15384615 , 4024.1025641 , 4118.97435897 , 3831.28205128 , 4630.25641026 , 4067.17948718 , 4472.30769231 , 4302.05128205 , 4265.64102564 , 4378.46153846 , 4251.79487179 , 4071.79487179 , 3670.25641026 , 3757.94871795 , 1689.0 , 1672.0 , 4.26 , 0.0 , 0.0 , 0.0 , 0.0 , 

111.0 , 3345.12820513 , 4030.76923077 , 4120.0 , 3835.38461538 , 4631.28205128 , 4067.17948718 , 4472.30769231 , 4305.64102564 , 4262.56410256 , 4382.05128205 , 4265.64102564 , 4069.74358974 , 3677.94871795 , 3758.46153846 , 1689.0 , 1673.0 , 4.284 , 0.0 , 0.0 , 0.0 , 0.0 , 

112.0 , 3348.20512821 , 4027.17948718 , 4120.51282051 , 3841.53846154 , 4644.1025641 , 4070.25641026 , 4472.30769231 , 4309.74358974 , 4270.25641026 , 4376.41025641 , 4261.53846154 , 4069.74358974 , 3680.51282051 , 3762.56410256 , 1689.0 , 1672.0 , 4.284 , 0.0 , 0.0 , 0.0 , 0.0 , 

113.0 , 3353.84615385 , 4026.15384615 , 4118.97435897 , 3846.66666667 , 4630.76923077 , 4061.02564103 , 4472.30769231 , 4312.82051282 , 4276.92307692 , 4383.58974359 , 4260.0 , 4074.87179487 , 3685.12820513 , 3770.25641026 , 1688.0 , 1673.0 , 4.284 , 0.0 , 0.0 , 0.0 , 0.0 , 

114.0 , 3351.28205128 , 4029.74358974 , 4120.0 , 3847.17948718 , 4614.35897436 , 4055.8974359 , 4472.30769231 , 4313.84615385 , 4278.97435897 , 4392.82051282 , 4264.1025641 , 4073.84615385 , 3686.15384615 , 3771.28205128 , 1688.0 , 1672.0 , 4.291 , 0.0 , 0.0 , 0.0 , 0.0 , 

115.0 , 3344.61538462 , 4028.20512821 , 4118.97435897 , 3845.12820513 , 4618.97435897 , 4061.02564103 , 4472.30769231 , 4312.82051282 , 4278.97435897 , 4386.66666667 , 4262.56410256 , 4070.76923077 , 3686.66666667 , 3764.1025641 , 1687.0 , 1673.0 , 4.312 , 0.0 , 0.0 , 0.0 , 0.0 , 

116.0 , 3344.61538462 , 4024.61538462 , 4115.38461538 , 3843.58974359 , 4627.69230769 , 4061.02564103 , 4472.30769231 , 4310.76923077 , 4272.30769231 , 4374.87179487 , 4253.84615385 , 4069.74358974 , 3688.20512821 , 3755.8974359 , 1688.0 , 1671.0 , 4.312 , 0.0 , 0.0 , 0.0 , 0.0 , 

117.0 , 3346.15384615 , 4032.30769231 , 4115.8974359 , 3845.12820513 , 4637.43589744 , 4057.94871795 , 4472.30769231 , 4310.25641026 , 4265.12820513 , 4366.15384615 , 4238.46153846 , 4067.17948718 , 3681.02564103 , 3743.58974359 , 1687.0 , 1671.0 , 4.315 , 0.0 , 0.0 , 0.0 , 0.0 , 

118.0 , 3345.12820513 , 4038.97435897 , 4120.51282051 , 3847.69230769 , 4645.64102564 , 4060.0 , 4472.30769231 , 4313.33333333 , 4266.66666667 , 4364.61538462 , 4230.25641026 , 4066.66666667 , 3668.71794872 , 3736.92307692 , 1689.0 , 1670.0 , 4.323 , 0.0 , 0.0 , 0.0 , 0.0 , 

119.0 , 3342.05128205 , 4030.25641026 , 4119.48717949 , 3845.64102564 , 4636.41025641 , 4061.02564103 , 4472.30769231 , 4313.33333333 , 4267.69230769 , 4363.58974359 , 4234.35897436 , 4067.69230769 , 3665.64102564 , 3741.53846154 , 1689.0 , 1669.0 , 4.343 , 0.0 , 0.0 , 0.0 , 0.0 , 

120.0 , 3340.0 , 4025.64102564 , 4113.33333333 , 3844.1025641 , 4617.94871795 , 4057.94871795 , 4472.30769231 , 4310.76923077 , 4264.61538462 , 4360.51282051 , 4233.84615385 , 4064.1025641 , 3672.82051282 , 3746.15384615 , 1689.0 , 1671.0 , 4.343 , 0.0 , 0.0 , 0.0 , 0.0 , 

121.0 , 3343.07692308 , 4036.92307692 , 4113.33333333 , 3848.20512821 , 4618.46153846 , 4055.38461538 , 4472.30769231 , 4310.25641026 , 4269.23076923 , 4370.25641026 , 4233.33333333 , 4063.07692308 , 3682.56410256 , 3750.76923077 , 1691.0 , 1671.0 , 4.345 , 0.0 , 0.0 , 0.0 , 0.0 , 

122.0 , 3346.66666667 , 4036.92307692 , 4113.33333333 , 3847.69230769 , 4637.43589744 , 4057.43589744 , 4472.30769231 , 4305.12820513 , 4273.33333333 , 4377.94871795 , 4241.53846154 , 4066.15384615 , 3683.07692308 , 3752.82051282 , 1690.0 , 1672.0 , 4.353 , 0.0 , 0.0 , 0.0 , 0.0 , 

123.0 , 3344.61538462 , 4024.61538462 , 4111.28205128 , 3842.56410256 , 4643.07692308 , 4060.51282051 , 4472.30769231 , 4303.07692308 , 4272.30769231 , 4375.38461538 , 4247.17948718 , 4069.74358974 , 3679.48717949 , 3753.33333333 , 1690.0 , 1672.0 , 4.377 , 0.0 , 0.0 , 0.0 , 0.0 , 

124.0 , 3345.12820513 , 4031.28205128 , 4116.92307692 , 3848.71794872 , 4623.07692308 , 4060.51282051 , 4472.30769231 , 4311.28205128 , 4278.97435897 , 4384.1025641 , 4249.23076923 , 4073.84615385 , 3690.25641026 , 3757.94871795 , 1690.0 , 1672.0 , 4.377 , 0.0 , 0.0 , 0.0 , 0.0 , 

125.0 , 3350.76923077 , 4037.94871795 , 4117.43589744 , 3850.76923077 , 4612.82051282 , 4058.46153846 , 4472.30769231 , 4315.38461538 , 4284.1025641 , 4394.35897436 , 4252.82051282 , 4073.33333333 , 3701.53846154 , 3757.43589744 , 1690.0 , 1672.0 , 4.377 , 0.0 , 0.0 , 0.0 , 0.0 , 

126.0 , 3344.61538462 , 4024.61538462 , 4107.69230769 , 3836.92307692 , 4627.17948718 , 4058.46153846 , 4472.30769231 , 4307.69230769 , 4278.97435897 , 4375.8974359 , 4247.69230769 , 4068.71794872 , 3692.82051282 , 3744.1025641 , 1690.0 , 1671.0 , 4.385 , 0.0 , 0.0 , 0.0 , 0.0 , 

127.0 , 3331.28205128 , 4018.97435897 , 4107.17948718 , 3828.20512821 , 4632.30769231 , 4058.97435897 , 4472.30769231 , 4310.25641026 , 4278.46153846 , 4362.05128205 , 4236.92307692 , 4065.12820513 , 3681.53846154 , 3738.97435897 , 1692.0 , 1670.0 , 4.409 , 0.0 , 0.0 , 0.0 , 0.0 , 

128.0 , 3335.38461538 , 4028.20512821 , 4111.28205128 , 3833.84615385 , 4630.76923077 , 4060.0 , 4472.30769231 , 4315.38461538 , 4283.07692308 , 4377.43589744 , 4231.79487179 , 4062.56410256 , 3680.51282051 , 3746.15384615 , 1691.0 , 1669.0 , 4.409 , 0.0 , 0.0 , 0.0 , 0.0 , 

0.0 , 3345.12820513 , 4031.28205128 , 4110.76923077 , 3840.51282051 , 4641.02564103 , 4061.02564103 , 4472.30769231 , 4303.07692308 , 4277.94871795 , 4374.87179487 , 4228.20512821 , 4060.0 , 3678.97435897 , 3742.56410256 , 1692.0 , 1669.0 , 4.409 , 0.0 , 0.0 , 0.0 , 0.0 , 

1.0 , 3344.61538462 , 4030.76923077 , 4114.35897436 , 3844.61538462 , 4643.07692308 , 4060.51282051 , 4472.30769231 , 4299.48717949 , 4273.33333333 , 4364.1025641 , 4231.79487179 , 4064.1025641 , 3684.1025641 , 3742.56410256 , 1693.0 , 1668.0 , 4.416 , 0.0 , 0.0 , 0.0 , 0.0 , 

2.0 , 3347.17948718 , 4036.92307692 , 4119.48717949 , 3848.20512821 , 4625.64102564 , 4058.97435897 , 4472.30769231 , 4313.33333333 , 4278.97435897 , 4384.61538462 , 4245.12820513 , 4071.28205128 , 3697.94871795 , 3756.92307692 , 1692.0 , 1668.0 , 4.438 , 0.0 , 0.0 , 0.0 , 0.0 , 

3.0 , 3356.92307692 , 4045.64102564 , 4115.38461538 , 3848.71794872 , 4622.05128205 , 4059.48717949 , 4472.30769231 , 4310.76923077 , 4278.97435897 , 4398.97435897 , 4252.30769231 , 4069.23076923 , 3701.53846154 , 3763.07692308 , 1693.0 , 1667.0 , 4.438 , 0.0 , 0.0 , 0.0 , 0.0 , 

4.0 , 3355.38461538 , 4046.15384615 , 4108.20512821 , 3848.20512821 , 4636.41025641 , 4061.53846154 , 4472.30769231 , 4295.8974359 , 4275.38461538 , 4383.07692308 , 4247.17948718 , 4065.12820513 , 3698.46153846 , 3752.82051282 , 1691.0 , 1669.0 , 4.441 , 0.0 , 0.0 , 0.0 , 0.0 , 

5.0 , 3345.64102564 , 4040.51282051 , 4109.74358974 , 3847.17948718 , 4636.92307692 , 4059.48717949 , 4472.30769231 , 4298.46153846 , 4276.41025641 , 4375.8974359 , 4245.64102564 , 4063.58974359 , 3698.97435897 , 3748.71794872 , 1691.0 , 1670.0 , 4.448 , 0.0 , 0.0 , 0.0 , 0.0 , 

6.0 , 3347.69230769 , 4037.43589744 , 4111.79487179 , 3847.17948718 , 4624.61538462 , 4056.92307692 , 4472.30769231 , 4305.12820513 , 4276.41025641 , 4387.17948718 , 4251.28205128 , 4066.15384615 , 3698.97435897 , 3760.51282051 , 1688.0 , 1670.0 , 4.468 , 0.0 , 0.0 , 0.0 , 0.0 , 

7.0 , 3356.41025641 , 4045.64102564 , 4110.25641026 , 3847.69230769 , 4622.05128205 , 4057.94871795 , 4472.30769231 , 4304.61538462 , 4275.8974359 , 4397.94871795 , 4257.43589744 , 4068.20512821 , 3701.53846154 , 3771.28205128 , 1688.0 , 1671.0 , 4.468 , 0.0 , 0.0 , 0.0 , 0.0 , 

8.0 , 3363.07692308 , 4054.87179487 , 4114.35897436 , 3847.69230769 , 4631.28205128 , 4060.0 , 4472.30769231 , 4307.69230769 , 4278.97435897 , 4400.0 , 4261.53846154 , 4065.64102564 , 3706.66666667 , 3770.25641026 , 1687.0 , 1671.0 , 4.471 , 0.0 , 0.0 , 0.0 , 0.0 , 

9.0 , 3370.76923077 , 4058.97435897 , 4115.8974359 , 3854.35897436 , 4635.38461538 , 4060.0 , 4472.30769231 , 4310.76923077 , 4278.46153846 , 4388.71794872 , 4257.94871795 , 4065.64102564 , 3708.20512821 , 3767.69230769 , 1687.0 , 1671.0 , 4.478 , 0.0 , 0.0 , 0.0 , 0.0 , 

10.0 , 3373.84615385 , 4061.53846154 , 4111.28205128 , 3864.61538462 , 4630.25641026 , 4058.97435897 , 4472.30769231 , 4312.30769231 , 4278.46153846 , 4391.28205128 , 4254.87179487 , 4068.20512821 , 3708.71794872 , 3769.23076923 , 1686.0 , 1670.0 , 4.502 , 0.0 , 0.0 , 0.0 , 0.0 , 

11.0 , 3365.64102564 , 4059.48717949 , 4110.76923077 , 3865.12820513 , 4632.82051282 , 4062.56410256 , 4472.30769231 , 4313.84615385 , 4282.05128205 , 4403.07692308 , 4255.8974359 , 4066.15384615 , 3706.66666667 , 3760.51282051 , 1687.0 , 1672.0 , 4.502 , 0.0 , 0.0 , 0.0 , 0.0 , 

12.0 , 3356.92307692 , 4052.30769231 , 4111.28205128 , 3860.51282051 , 4642.56410256 , 4068.71794872 , 4472.30769231 , 4311.28205128 , 4282.05128205 , 4383.07692308 , 4257.43589744 , 4064.1025641 , 3698.46153846 , 3747.69230769 , 1687.0 , 1671.0 , 4.502 , 0.0 , 0.0 , 0.0 , 0.0 , 

13.0 , 3361.53846154 , 4050.25641026 , 4108.20512821 , 3861.02564103 , 4641.53846154 , 4071.79487179 , 4472.30769231 , 4309.74358974 , 4281.53846154 , 4369.23076923 , 4256.92307692 , 4072.30769231 , 3697.94871795 , 3753.84615385 , 1686.0 , 1672.0 , 4.51 , 0.0 , 0.0 , 0.0 , 0.0 , 

14.0 , 3372.30769231 , 4057.94871795 , 4114.35897436 , 3861.53846154 , 4634.87179487 , 4072.30769231 , 4472.30769231 , 4311.28205128 , 4283.07692308 , 4395.8974359 , 4259.48717949 , 4078.46153846 , 3706.15384615 , 3775.38461538 , 1687.0 , 1670.0 , 4.534 , 0.0 , 0.0 , 0.0 , 0.0 , 

15.0 , 3375.8974359 , 4063.07692308 , 4121.02564103 , 3860.51282051 , 4634.35897436 , 4073.84615385 , 4472.30769231 , 4304.61538462 , 4281.02564103 , 4403.58974359 , 4261.53846154 , 4077.43589744 , 3710.25641026 , 3782.56410256 , 1686.0 , 1670.0 , 4.534 , 0.0 , 0.0 , 0.0 , 0.0 , 

16.0 , 3371.79487179 , 4058.97435897 , 4118.97435897 , 3861.02564103 , 4632.82051282 , 4076.41025641 , 4472.30769231 , 4293.33333333 , 4277.43589744 , 4374.87179487 , 4254.87179487 , 4073.33333333 , 3709.74358974 , 3772.82051282 , 1687.0 , 1669.0 , 4.534 , 0.0 , 0.0 , 0.0 , 0.0 , 

17.0 , 3370.25641026 , 4061.02564103 , 4119.48717949 , 3859.48717949 , 4632.82051282 , 4077.94871795 , 4472.30769231 , 4294.35897436 , 4277.43589744 , 4368.71794872 , 4248.20512821 , 4070.25641026 , 3713.33333333 , 3768.20512821 , 1687.0 , 1669.0 , 4.541 , 0.0 , 0.0 , 0.0 , 0.0 , 

18.0 , 3375.38461538 , 4070.76923077 , 4120.51282051 , 3859.48717949 , 4634.35897436 , 4077.94871795 , 4472.30769231 , 4305.12820513 , 4280.0 , 4378.97435897 , 4249.74358974 , 4070.25641026 , 3715.38461538 , 3772.82051282 , 1688.0 , 1669.0 , 4.565 , 0.0 , 0.0 , 0.0 , 0.0 , 

19.0 , 3378.46153846 , 4077.94871795 , 4120.0 , 3864.61538462 , 4631.79487179 , 4079.48717949 , 4472.30769231 , 4309.23076923 , 4281.53846154 , 4372.30769231 , 4252.30769231 , 4069.74358974 , 3712.30769231 , 3775.8974359 , 1689.0 , 1668.0 , 4.565 , 0.0 , 0.0 , 0.0 , 0.0 , 

20.0 , 3372.30769231 , 4073.84615385 , 4121.53846154 , 3864.61538462 , 4633.33333333 , 4082.56410256 , 4472.30769231 , 4303.58974359 , 4277.94871795 , 4360.51282051 , 4246.66666667 , 4068.20512821 , 3708.71794872 , 3774.87179487 , 1690.0 , 1670.0 , 4.565 , 0.0 , 0.0 , 0.0 , 0.0 , 

21.0 , 3365.64102564 , 4066.66666667 , 4121.02564103 , 3857.94871795 , 4642.56410256 , 4083.58974359 , 4472.30769231 , 4303.07692308 , 4275.38461538 , 4356.92307692 , 4244.1025641 , 4069.74358974 , 3710.76923077 , 3774.35897436 , 1690.0 , 1669.0 , 4.572 , 0.0 , 0.0 , 0.0 , 0.0 , 

22.0 , 3371.79487179 , 4070.25641026 , 4121.02564103 , 3857.94871795 , 4644.61538462 , 4081.53846154 , 4472.30769231 , 4313.33333333 , 4280.0 , 4363.58974359 , 4252.30769231 , 4074.87179487 , 3713.84615385 , 3775.8974359 , 1691.0 , 1670.0 , 4.593 , 0.0 , 0.0 , 0.0 , 0.0 , 

23.0 , 3377.94871795 , 4077.43589744 , 4121.02564103 , 3863.07692308 , 4635.38461538 , 4078.97435897 , 4472.30769231 , 4315.8974359 , 4283.07692308 , 4371.79487179 , 4256.41025641 , 4076.41025641 , 3714.87179487 , 3777.43589744 , 1690.0 , 1669.0 , 4.593 , 0.0 , 0.0 , 0.0 , 0.0 , 

24.0 , 3373.33333333 , 4076.92307692 , 4119.48717949 , 3862.56410256 , 4631.79487179 , 4079.48717949 , 4471.79487179 , 4307.17948718 , 4278.97435897 , 4371.28205128 , 4249.74358974 , 4074.35897436 , 3712.82051282 , 3778.46153846 , 1689.0 , 1671.0 , 4.596 , 0.0 , 0.0 , 0.0 , 0.0 , 

25.0 , 3368.20512821 , 4074.35897436 , 4120.51282051 , 3858.97435897 , 4635.8974359 , 4082.56410256 , 4472.30769231 , 4308.71794872 , 4278.46153846 , 4363.58974359 , 4246.66666667 , 4075.8974359 , 3712.30769231 , 3775.8974359 , 1690.0 , 1669.0 , 4.603 , 0.0 , 0.0 , 0.0 , 0.0 , 

26.0 , 3369.23076923 , 4075.38461538 , 4121.53846154 , 3862.05128205 , 4636.41025641 , 4084.1025641 , 4473.33333333 , 4311.79487179 , 4280.0 , 4355.38461538 , 4252.82051282 , 4075.8974359 , 3715.38461538 , 3769.74358974 , 1687.0 , 1670.0 , 4.628 , 0.0 , 0.0 , 0.0 , 0.0 , 

27.0 , 3370.25641026 , 4075.38461538 , 4120.51282051 , 3863.07692308 , 4632.82051282 , 4078.97435897 , 4472.82051282 , 4302.56410256 , 4271.28205128 , 4353.33333333 , 4253.33333333 , 4071.28205128 , 3715.38461538 , 3771.28205128 , 1689.0 , 1671.0 , 4.628 , 0.0 , 0.0 , 0.0 , 0.0 , 

28.0 , 3365.64102564 , 4072.30769231 , 4120.0 , 3851.28205128 , 4633.84615385 , 4074.87179487 , 4472.82051282 , 4298.97435897 , 4266.66666667 , 4355.38461538 , 4242.56410256 , 4068.71794872 , 3707.17948718 , 3771.28205128 , 1688.0 , 1670.0 , 4.628 , 0.0 , 0.0 , 0.0 , 0.0 , 

29.0 , 3362.05128205 , 4073.33333333 , 4120.51282051 , 3846.66666667 , 4632.82051282 , 4075.8974359 , 4473.33333333 , 4303.07692308 , 4270.25641026 , 4353.33333333 , 4241.02564103 , 4069.74358974 , 3707.69230769 , 3764.61538462 , 1687.0 , 1671.0 , 4.634 , 0.0 , 0.0 , 0.0 , 0.0 , 

30.0 , 3364.1025641 , 4078.46153846 , 4121.53846154 , 3857.43589744 , 4629.74358974 , 4075.8974359 , 4472.82051282 , 4298.46153846 , 4268.71794872 , 4352.82051282 , 4250.76923077 , 4071.28205128 , 3718.97435897 , 3765.64102564 , 1688.0 , 1670.0 , 4.658 , 0.0 , 0.0 , 0.0 , 0.0 , 

31.0 , 3365.12820513 , 4079.48717949 , 4121.02564103 , 3857.43589744 , 4636.92307692 , 4074.35897436 , 4471.79487179 , 4293.33333333 , 4267.69230769 , 4352.82051282 , 4246.15384615 , 4071.28205128 , 3716.41025641 , 3767.69230769 , 1688.0 , 1670.0 , 4.658 , 0.0 , 0.0 , 0.0 , 0.0 , 

32.0 , 3359.48717949 , 4073.84615385 , 4119.48717949 , 3845.64102564 , 4637.94871795 , 4073.33333333 , 4471.79487179 , 4297.94871795 , 4271.79487179 , 4343.07692308 , 4236.41025641 , 4070.25641026 , 3703.58974359 , 3754.35897436 , 1688.0 , 1670.0 , 4.658 , 0.0 , 0.0 , 0.0 , 0.0 , 

33.0 , 3356.92307692 , 4071.79487179 , 4119.48717949 , 3845.64102564 , 4627.69230769 , 4067.17948718 , 4472.30769231 , 4300.0 , 4269.23076923 , 4338.97435897 , 4241.02564103 , 4070.76923077 , 3705.64102564 , 3747.17948718 , 1689.0 , 1670.0 , 4.667 , 0.0 , 0.0 , 0.0 , 0.0 , 

34.0 , 3362.56410256 , 4074.35897436 , 4120.0 , 3855.38461538 , 4628.20512821 , 4064.61538462 , 4473.33333333 , 4296.41025641 , 4264.1025641 , 4341.02564103 , 4241.53846154 , 4073.33333333 , 3708.71794872 , 3761.02564103 , 1689.0 , 1669.0 , 4.69 , 0.0 , 0.0 , 0.0 , 0.0 , 

35.0 , 3367.69230769 , 4075.38461538 , 4120.0 , 3860.51282051 , 4639.48717949 , 4071.79487179 , 4473.33333333 , 4295.38461538 , 4265.64102564 , 4339.48717949 , 4234.87179487 , 4074.87179487 , 3703.58974359 , 3769.23076923 , 1689.0 , 1669.0 , 4.69 , 0.0 , 0.0 , 0.0 , 0.0 , 

36.0 , 3372.82051282 , 4076.41025641 , 4121.53846154 , 3864.1025641 , 4634.35897436 , 4072.30769231 , 4471.79487179 , 4297.43589744 , 4266.66666667 , 4353.33333333 , 4242.05128205 , 4076.92307692 , 3711.28205128 , 3771.28205128 , 1688.0 , 1669.0 , 4.69 , 0.0 , 0.0 , 0.0 , 0.0 , 

37.0 , 3378.46153846 , 4078.97435897 , 4122.05128205 , 3864.61538462 , 4618.97435897 , 4064.61538462 , 4471.79487179 , 4298.46153846 , 4270.25641026 , 4372.30769231 , 4259.48717949 , 4081.02564103 , 3724.61538462 , 3778.97435897 , 1687.0 , 1670.0 , 4.697 , 0.0 , 0.0 , 0.0 , 0.0 , 

38.0 , 3379.48717949 , 4079.48717949 , 4121.53846154 , 3863.58974359 , 4616.92307692 , 4064.61538462 , 4472.30769231 , 4296.92307692 , 4280.51282051 , 4366.66666667 , 4265.64102564 , 4082.56410256 , 3724.1025641 , 3778.97435897 , 1687.0 , 1669.0 , 4.719 , 0.0 , 0.0 , 0.0 , 0.0 , 

39.0 , 3375.38461538 , 4077.94871795 , 4121.53846154 , 3864.61538462 , 4627.17948718 , 4067.17948718 , 4471.79487179 , 4296.41025641 , 4278.97435897 , 4362.56410256 , 4257.43589744 , 4081.53846154 , 3718.97435897 , 3774.87179487 , 1688.0 , 1668.0 , 4.719 , 0.0 , 0.0 , 0.0 , 0.0 , 

40.0 , 3367.17948718 , 4077.43589744 , 4122.05128205 , 3855.38461538 , 4632.82051282 , 4064.61538462 , 4471.79487179 , 4297.43589744 , 4266.15384615 , 4366.66666667 , 4247.17948718 , 4074.87179487 , 3712.30769231 , 3768.71794872 , 1688.0 , 1667.0 , 4.721 , 0.0 , 0.0 , 0.0 , 0.0 , 

41.0 , 3361.53846154 , 4074.87179487 , 4118.97435897 , 3845.64102564 , 4627.69230769 , 4065.64102564 , 4472.30769231 , 4296.41025641 , 4263.07692308 , 4354.35897436 , 4248.20512821 , 4069.74358974 , 3706.66666667 , 3757.43589744 , 1688.0 , 1668.0 , 4.728 , 0.0 , 0.0 , 0.0 , 0.0 , 

42.0 , 3360.0 , 4068.71794872 , 4114.35897436 , 3851.79487179 , 4621.02564103 , 4069.23076923 , 4471.79487179 , 4296.41025641 , 4271.79487179 , 4342.05128205 , 4250.25641026 , 4072.30769231 , 3711.28205128 , 3756.41025641 , 1689.0 , 1668.0 , 4.749 , 0.0 , 0.0 , 0.0 , 0.0 , 

43.0 , 3361.02564103 , 4066.15384615 , 4114.87179487 , 3863.07692308 , 4617.43589744 , 4067.17948718 , 4472.30769231 , 4296.41025641 , 4273.33333333 , 4347.17948718 , 4243.07692308 , 4073.33333333 , 3714.35897436 , 3766.66666667 , 1690.0 , 1671.0 , 4.749 , 0.0 , 0.0 , 0.0 , 0.0 , 

44.0 , 3365.64102564 , 4073.33333333 , 4118.46153846 , 3861.53846154 , 4612.82051282 , 4060.0 , 4473.33333333 , 4295.8974359 , 4266.15384615 , 4353.84615385 , 4246.66666667 , 4072.82051282 , 3711.79487179 , 3770.76923077 , 1690.0 , 1670.0 , 4.753 , 0.0 , 0.0 , 0.0 , 0.0 , 

45.0 , 3369.23076923 , 4083.07692308 , 4117.94871795 , 3860.51282051 , 4616.41025641 , 4055.8974359 , 4474.35897436 , 4297.43589744 , 4264.1025641 , 4354.87179487 , 4252.30769231 , 4075.38461538 , 3714.35897436 , 3767.69230769 , 1688.0 , 1672.0 , 4.76 , 0.0 , 0.0 , 0.0 , 0.0 , 

46.0 , 3368.20512821 , 4083.07692308 , 4117.94871795 , 3864.61538462 , 4628.71794872 , 4057.43589744 , 4473.84615385 , 4296.41025641 , 4266.66666667 , 4358.46153846 , 4246.66666667 , 4074.87179487 , 3718.46153846 , 3769.74358974 , 1690.0 , 1670.0 , 4.781 , 0.0 , 0.0 , 0.0 , 0.0 , 

47.0 , 3370.25641026 , 4081.02564103 , 4120.51282051 , 3864.1025641 , 4636.92307692 , 4058.97435897 , 4472.82051282 , 4294.35897436 , 4265.12820513 , 4363.07692308 , 4246.66666667 , 4070.76923077 , 3722.56410256 , 3767.17948718 , 1688.0 , 1669.0 , 4.781 , 0.0 , 0.0 , 0.0 , 0.0 , 

48.0 , 3373.84615385 , 4085.64102564 , 4121.53846154 , 3870.25641026 , 4632.82051282 , 4057.94871795 , 4472.82051282 , 4300.51282051 , 4268.20512821 , 4369.23076923 , 4259.48717949 , 4075.38461538 , 3730.25641026 , 3768.20512821 , 1688.0 , 1670.0 , 4.784 , 0.0 , 0.0 , 0.0 , 0.0 , 

49.0 , 3374.35897436 , 4091.28205128 , 4120.51282051 , 3880.0 , 4625.12820513 , 4058.46153846 , 4472.82051282 , 4303.58974359 , 4276.41025641 , 4375.38461538 , 4267.17948718 , 4078.97435897 , 3731.28205128 , 3780.51282051 , 1688.0 , 1669.0 , 4.791 , 0.0 , 0.0 , 0.0 , 0.0 , 

50.0 , 3373.33333333 , 4094.87179487 , 4120.0 , 3876.41025641 , 4623.58974359 , 4061.53846154 , 4472.30769231 , 4296.92307692 , 4276.92307692 , 4372.82051282 , 4260.51282051 , 4074.87179487 , 3728.20512821 , 3784.1025641 , 1687.0 , 1669.0 , 4.812 , 0.0 , 0.0 , 0.0 , 0.0 , 

51.0 , 3378.97435897 , 4105.12820513 , 4122.05128205 , 3873.33333333 , 4622.56410256 , 4061.02564103 , 4472.30769231 , 4299.48717949 , 4278.46153846 , 4373.84615385 , 4259.48717949 , 4075.38461538 , 3736.92307692 , 3783.58974359 , 1687.0 , 1668.0 , 4.812 , 0.0 , 0.0 , 0.0 , 0.0 , 

52.0 , 3382.05128205 , 4110.76923077 , 4122.05128205 , 3878.46153846 , 4626.66666667 , 4058.97435897 , 4472.82051282 , 4305.12820513 , 4280.0 , 4381.02564103 , 4266.15384615 , 4077.43589744 , 3743.07692308 , 3787.17948718 , 1687.0 , 1669.0 , 4.815 , 0.0 , 0.0 , 0.0 , 0.0 , 

53.0 , 3367.69230769 , 4096.41025641 , 4115.38461538 , 3869.74358974 , 4640.51282051 , 4065.12820513 , 4473.33333333 , 4295.38461538 , 4268.20512821 , 4367.69230769 , 4256.41025641 , 4070.25641026 , 3729.74358974 , 3774.87179487 , 1687.0 , 1668.0 , 4.822 , 0.0 , 0.0 , 0.0 , 0.0 , 

54.0 , 3355.38461538 , 4088.20512821 , 4112.82051282 , 3858.46153846 , 4642.05128205 , 4068.20512821 , 4472.82051282 , 4289.23076923 , 4258.97435897 , 4346.66666667 , 4247.69230769 , 4064.1025641 , 3720.0 , 3757.94871795 , 1687.0 , 1669.0 , 4.842 , 0.0 , 0.0 , 0.0 , 0.0 , 

55.0 , 3363.58974359 , 4097.94871795 , 4120.0 , 3868.20512821 , 4624.1025641 , 4058.46153846 , 4473.33333333 , 4296.41025641 , 4265.12820513 , 4353.84615385 , 4260.51282051 , 4069.23076923 , 3728.71794872 , 3769.23076923 , 1688.0 , 1669.0 , 4.842 , 0.0 , 0.0 , 0.0 , 0.0 , 

56.0 , 3374.35897436 , 4100.51282051 , 4122.56410256 , 3878.46153846 , 4612.30769231 , 4053.84615385 , 4473.84615385 , 4298.97435897 , 4267.17948718 , 4373.84615385 , 4270.76923077 , 4075.38461538 , 3744.1025641 , 3784.61538462 , 1687.0 , 1669.0 , 4.846 , 0.0 , 0.0 , 0.0 , 0.0 , 

57.0 , 3368.71794872 , 4098.97435897 , 4118.97435897 , 3876.41025641 , 4616.41025641 , 4059.48717949 , 4473.84615385 , 4296.41025641 , 4262.56410256 , 4376.92307692 , 4264.61538462 , 4073.33333333 , 3752.82051282 , 3780.0 , 1688.0 , 1670.0 , 4.853 , 0.0 , 0.0 , 0.0 , 0.0 , 

58.0 , 3361.53846154 , 4104.1025641 , 4119.48717949 , 3874.35897436 , 4624.61538462 , 4061.53846154 , 4473.84615385 , 4297.43589744 , 4263.07692308 , 4370.76923077 , 4264.1025641 , 4070.25641026 , 3750.25641026 , 3779.48717949 , 1686.0 , 1670.0 , 4.877 , 0.0 , 0.0 , 0.0 , 0.0 , 

59.0 , 3362.56410256 , 4109.23076923 , 4122.05128205 , 3871.28205128 , 4626.15384615 , 4059.48717949 , 4473.84615385 , 4296.41025641 , 4266.66666667 , 4369.74358974 , 4269.23076923 , 4071.28205128 , 3738.46153846 , 3785.64102564 , 1686.0 , 1671.0 , 4.877 , 0.0 , 0.0 , 0.0 , 0.0 , 

60.0 , 3363.58974359 , 4109.74358974 , 4120.51282051 , 3865.64102564 , 4618.46153846 , 4060.51282051 , 4473.33333333 , 4298.46153846 , 4271.28205128 , 4373.33333333 , 4265.64102564 , 4072.82051282 , 3729.23076923 , 3782.05128205 , 1686.0 , 1670.0 , 4.877 , 0.0 , 0.0 , 0.0 , 0.0 , 

61.0 , 3361.53846154 , 4102.05128205 , 4117.43589744 , 3863.58974359 , 4612.82051282 , 4061.53846154 , 4472.30769231 , 4298.97435897 , 4268.20512821 , 4372.30769231 , 4261.02564103 , 4068.20512821 , 3723.07692308 , 3772.30769231 , 1685.0 , 1670.0 , 4.886 , 0.0 , 0.0 , 0.0 , 0.0 , 

62.0 , 3357.94871795 , 4090.25641026 , 4112.30769231 , 3866.66666667 , 4617.43589744 , 4061.02564103 , 4473.33333333 , 4295.38461538 , 4265.64102564 , 4369.23076923 , 4262.56410256 , 4063.07692308 , 3718.46153846 , 3766.15384615 , 1686.0 , 1669.0 , 4.906 , 0.0 , 0.0 , 0.0 , 0.0 , 

63.0 , 3358.97435897 , 4090.76923077 , 4107.17948718 , 3866.66666667 , 4616.41025641 , 4060.0 , 4473.33333333 , 4296.41025641 , 4272.82051282 , 4373.84615385 , 4266.15384615 , 4067.69230769 , 3729.74358974 , 3768.20512821 , 1686.0 , 1669.0 , 4.906 , 0.0 , 0.0 , 0.0 , 0.0 , 

64.0 , 3360.51282051 , 4093.84615385 , 4106.66666667 , 3865.64102564 , 4616.41025641 , 4062.56410256 , 4472.82051282 , 4296.92307692 , 4271.28205128 , 4371.79487179 , 4262.05128205 , 4069.74358974 , 3738.97435897 , 3765.64102564 , 1687.0 , 1670.0 , 4.909 , 0.0 , 0.0 , 0.0 , 0.0 , 

65.0 , 3358.46153846 , 4092.82051282 , 4107.17948718 , 3869.74358974 , 4628.71794872 , 4063.58974359 , 4472.82051282 , 4292.82051282 , 4261.02564103 , 4357.43589744 , 4256.41025641 , 4065.12820513 , 3728.20512821 , 3754.87179487 , 1686.0 , 1671.0 , 4.916 , 0.0 , 0.0 , 0.0 , 0.0 , 

66.0 , 3360.0 , 4100.0 , 4111.79487179 , 3876.92307692 , 4629.74358974 , 4054.87179487 , 4473.33333333 , 4291.79487179 , 4263.07692308 , 4359.48717949 , 4260.51282051 , 4067.17948718 , 3731.79487179 , 3760.0 , 1688.0 , 1670.0 , 4.937 , 0.0 , 0.0 , 0.0 , 0.0 , 

67.0 , 3367.17948718 , 4108.20512821 , 4118.46153846 , 3880.0 , 4616.41025641 , 4050.76923077 , 4472.82051282 , 4296.92307692 , 4269.74358974 , 4376.92307692 , 4267.17948718 , 4073.84615385 , 3754.35897436 , 3781.02564103 , 1686.0 , 1670.0 , 4.937 , 0.0 , 0.0 , 0.0 , 0.0 , 

68.0 , 3371.28205128 , 4107.69230769 , 4115.38461538 , 3878.97435897 , 4618.46153846 , 4057.94871795 , 4472.82051282 , 4297.43589744 , 4269.23076923 , 4382.56410256 , 4267.17948718 , 4076.41025641 , 3755.8974359 , 3784.61538462 , 1687.0 , 1671.0 , 4.94 , 0.0 , 0.0 , 0.0 , 0.0 , 

69.0 , 3368.71794872 , 4108.71794872 , 4111.79487179 , 3878.97435897 , 4626.15384615 , 4061.53846154 , 4473.84615385 , 4295.38461538 , 4270.25641026 , 4379.48717949 , 4265.64102564 , 4075.38461538 , 3740.51282051 , 3771.28205128 , 1687.0 , 1671.0 , 4.947 , 0.0 , 0.0 , 0.0 , 0.0 , 

70.0 , 3367.69230769 , 4109.74358974 , 4113.84615385 , 3878.46153846 , 4613.84615385 , 4058.46153846 , 4472.82051282 , 4296.92307692 , 4278.97435897 , 4384.61538462 , 4265.12820513 , 4072.82051282 , 3738.46153846 , 3767.69230769 , 1686.0 , 1673.0 , 4.969 , 0.0 , 0.0 , 0.0 , 0.0 , 

71.0 , 3371.28205128 , 4107.17948718 , 4111.79487179 , 3877.43589744 , 4603.58974359 , 4057.43589744 , 4472.30769231 , 4298.46153846 , 4281.53846154 , 4393.33333333 , 4267.17948718 , 4071.79487179 , 3742.05128205 , 3775.38461538 , 1687.0 , 1673.0 , 4.969 , 0.0 , 0.0 , 0.0 , 0.0 , 

72.0 , 3371.28205128 , 4106.66666667 , 4105.64102564 , 3878.97435897 , 4613.84615385 , 4058.46153846 , 4473.33333333 , 4297.43589744 , 4272.30769231 , 4389.23076923 , 4265.64102564 , 4073.33333333 , 3740.0 , 3774.35897436 , 1686.0 , 1675.0 , 4.971 , 0.0 , 0.0 , 0.0 , 0.0 , 

73.0 , 3365.64102564 , 4105.64102564 , 4105.64102564 , 3878.97435897 , 4621.53846154 , 4055.8974359 , 4473.84615385 , 4296.41025641 , 4264.61538462 , 4376.92307692 , 4255.8974359 , 4071.79487179 , 3742.05128205 , 3765.12820513 , 1687.0 , 1674.0 , 4.978 , 0.0 , 0.0 , 0.0 , 0.0 , 

74.0 , 3361.02564103 , 4103.07692308 , 4106.66666667 , 3877.43589744 , 4615.38461538 , 4051.79487179 , 4472.82051282 , 4296.92307692 , 4266.15384615 , 4371.28205128 , 4248.20512821 , 4067.17948718 , 3746.15384615 , 3764.61538462 , 1687.0 , 1673.0 , 5.0 , 0.0 , 0.0 , 0.0 , 0.0 , 

75.0 , 3360.51282051 , 4104.1025641 , 4102.05128205 , 3877.43589744 , 4616.92307692 , 4048.71794872 , 4473.33333333 , 4291.79487179 , 4267.17948718 , 4369.74358974 , 4250.25641026 , 4064.61538462 , 3744.1025641 , 3769.23076923 , 1688.0 , 1673.0 , 5.0 , 0.0 , 0.0 , 0.0 , 0.0 , 

76.0 , 3363.07692308 , 4105.12820513 , 4100.51282051 , 3877.94871795 , 4624.1025641 , 4049.74358974 , 4472.82051282 , 4283.07692308 , 4263.07692308 , 4362.56410256 , 4250.76923077 , 4064.1025641 , 3733.84615385 , 3763.07692308 , 1688.0 , 1673.0 , 5.002 , 0.0 , 0.0 , 0.0 , 0.0 , 

77.0 , 3356.92307692 , 4098.46153846 , 4102.56410256 , 3880.0 , 4623.07692308 , 4052.30769231 , 4471.79487179 , 4280.51282051 , 4258.97435897 , 4348.71794872 , 4243.07692308 , 4060.51282051 , 3723.58974359 , 3747.69230769 , 1688.0 , 1673.0 , 5.01 , 0.0 , 0.0 , 0.0 , 0.0 , 

78.0 , 3351.28205128 , 4097.94871795 , 4101.53846154 , 3877.43589744 , 4615.8974359 , 4054.35897436 , 4471.79487179 , 4281.02564103 , 4256.92307692 , 4342.05128205 , 4241.02564103 , 4054.87179487 , 3725.12820513 , 3746.66666667 , 1687.0 , 1674.0 , 5.033 , 0.0 , 0.0 , 0.0 , 0.0 , 

79.0 , 3366.15384615 , 4112.82051282 , 4100.0 , 3879.48717949 , 4607.17948718 , 4052.82051282 , 4472.82051282 , 4286.66666667 , 4262.05128205 , 4357.94871795 , 4253.33333333 , 4057.43589744 , 3742.56410256 , 3763.58974359 , 1688.0 , 1675.0 , 5.033 , 0.0 , 0.0 , 0.0 , 0.0 , 

80.0 , 3385.64102564 , 4126.66666667 , 4103.58974359 , 3888.71794872 , 4603.58974359 , 4050.76923077 , 4472.30769231 , 4296.41025641 , 4269.23076923 , 4383.58974359 , 4267.17948718 , 4064.61538462 , 3759.48717949 , 3774.35897436 , 1686.0 , 1674.0 , 5.033 , 0.0 , 0.0 , 0.0 , 0.0 , 

81.0 , 3384.1025641 , 4124.1025641 , 4104.61538462 , 3889.23076923 , 4608.20512821 , 4051.79487179 , 4472.30769231 , 4297.94871795 , 4266.66666667 , 4387.17948718 , 4270.25641026 , 4065.64102564 , 3760.0 , 3773.33333333 , 1684.0 , 1675.0 , 5.041 , 0.0 , 0.0 , 0.0 , 0.0 , 

82.0 , 3371.28205128 , 4112.82051282 , 4100.0 , 3877.94871795 , 4617.43589744 , 4051.28205128 , 4473.33333333 , 4286.15384615 , 4264.61538462 , 4367.69230769 , 4259.48717949 , 4061.53846154 , 3745.12820513 , 3768.71794872 , 1685.0 , 1674.0 , 5.065 , 0.0 , 0.0 , 0.0 , 0.0 , 

83.0 , 3363.07692308 , 4110.76923077 , 4094.87179487 , 3871.79487179 , 4618.97435897 , 4045.64102564 , 4473.84615385 , 4279.48717949 , 4266.66666667 , 4355.38461538 , 4246.66666667 , 4059.48717949 , 3732.30769231 , 3757.43589744 , 1684.0 , 1675.0 , 5.065 , 0.0 , 0.0 , 0.0 , 0.0 , 

84.0 , 3360.51282051 , 4118.97435897 , 4095.38461538 , 3876.92307692 , 4611.79487179 , 4042.05128205 , 4472.30769231 , 4283.07692308 , 4266.66666667 , 4361.02564103 , 4243.58974359 , 4062.05128205 , 3738.46153846 , 3750.76923077 , 1685.0 , 1674.0 , 5.065 , 0.0 , 0.0 , 0.0 , 0.0 , 

85.0 , 3363.58974359 , 4124.61538462 , 4100.0 , 3885.12820513 , 4614.35897436 , 4050.25641026 , 4471.79487179 , 4282.05128205 , 4265.12820513 , 4361.02564103 , 4248.20512821 , 4063.58974359 , 3749.23076923 , 3757.94871795 , 1686.0 , 1674.0 , 5.072 , 0.0 , 0.0 , 0.0 , 0.0 , 

86.0 , 3367.69230769 , 4120.51282051 , 4101.53846154 , 3889.23076923 , 4632.30769231 , 4060.0 , 4472.30769231 , 4279.48717949 , 4264.61538462 , 4350.76923077 , 4248.20512821 , 4062.05128205 , 3747.17948718 , 3761.53846154 , 1688.0 , 1673.0 , 5.093 , 0.0 , 0.0 , 0.0 , 0.0 , 

87.0 , 3370.76923077 , 4118.46153846 , 4101.02564103 , 3890.25641026 , 4637.94871795 , 4055.8974359 , 4472.30769231 , 4289.74358974 , 4265.64102564 , 4357.94871795 , 4249.23076923 , 4064.1025641 , 3741.53846154 , 3758.46153846 , 1688.0 , 1672.0 , 5.093 , 0.0 , 0.0 , 0.0 , 0.0 , 

88.0 , 3376.41025641 , 4120.51282051 , 4100.51282051 , 3891.79487179 , 4620.0 , 4049.23076923 , 4471.79487179 , 4300.0 , 4267.17948718 , 4367.17948718 , 4253.84615385 , 4065.64102564 , 3740.51282051 , 3759.48717949 , 1690.0 , 1672.0 , 5.096 , 0.0 , 0.0 , 0.0 , 0.0 , 

89.0 , 3380.51282051 , 4124.61538462 , 4100.0 , 3895.38461538 , 4610.76923077 , 4049.23076923 , 4471.79487179 , 4293.33333333 , 4267.17948718 , 4359.48717949 , 4257.43589744 , 4064.1025641 , 3749.74358974 , 3762.05128205 , 1689.0 , 1670.0 , 5.104 , 0.0 , 0.0 , 0.0 , 0.0 , 

90.0 , 3387.17948718 , 4133.33333333 , 4099.48717949 , 3895.8974359 , 4617.94871795 , 4047.69230769 , 4473.33333333 , 4290.25641026 , 4265.64102564 , 4362.05128205 , 4270.76923077 , 4068.20512821 , 3768.71794872 , 3773.84615385 , 1689.0 , 1670.0 , 5.128 , 0.0 , 0.0 , 0.0 , 0.0 , 

91.0 , 3393.33333333 , 4139.48717949 , 4101.02564103 , 3898.46153846 , 4616.41025641 , 4043.58974359 , 4473.84615385 , 4293.33333333 , 4266.15384615 , 4380.51282051 , 4280.51282051 , 4074.35897436 , 3776.41025641 , 3788.20512821 , 1687.0 , 1670.0 , 5.128 , 0.0 , 0.0 , 0.0 , 0.0 , 

92.0 , 3390.25641026 , 4138.97435897 , 4099.48717949 , 3906.66666667 , 4610.25641026 , 4042.56410256 , 4472.82051282 , 4287.69230769 , 4263.58974359 , 4383.07692308 , 4271.28205128 , 4069.23076923 , 3763.58974359 , 3786.15384615 , 1686.0 , 1671.0 , 5.128 , 0.0 , 0.0 , 0.0 , 0.0 , 

93.0 , 3384.61538462 , 4136.92307692 , 4096.41025641 , 3913.33333333 , 4619.48717949 , 4046.66666667 , 4472.82051282 , 4286.15384615 , 4264.61538462 , 4372.82051282 , 4260.51282051 , 4062.56410256 , 3757.94871795 , 3776.92307692 , 1684.0 , 1672.0 , 5.135 , 0.0 , 0.0 , 0.0 , 0.0 , 

94.0 , 3380.51282051 , 4134.87179487 , 4098.46153846 , 3905.64102564 , 4634.35897436 , 4052.30769231 , 4472.82051282 , 4293.84615385 , 4273.84615385 , 4372.30769231 , 4260.51282051 , 4061.53846154 , 3762.56410256 , 3771.79487179 , 1684.0 , 1672.0 , 5.158 , 0.0 , 0.0 , 0.0 , 0.0 , 

95.0 , 3377.94871795 , 4137.43589744 , 4098.46153846 , 3903.07692308 , 4632.82051282 , 4052.82051282 , 4473.33333333 , 4296.41025641 , 4276.41025641 , 4378.46153846 , 4264.61538462 , 4061.02564103 , 3763.58974359 , 3769.23076923 , 1683.0 , 1672.0 , 5.158 , 0.0 , 0.0 , 0.0 , 0.0 , 

96.0 , 3378.97435897 , 4137.94871795 , 4093.33333333 , 3909.23076923 , 4622.05128205 , 4046.66666667 , 4473.84615385 , 4295.38461538 , 4267.69230769 , 4370.25641026 , 4261.53846154 , 4061.02564103 , 3757.43589744 , 3768.71794872 , 1685.0 , 1672.0 , 5.158 , 0.0 , 0.0 , 0.0 , 0.0 , 

97.0 , 3377.94871795 , 4127.17948718 , 4090.25641026 , 3900.0 , 4626.15384615 , 4045.64102564 , 4473.84615385 , 4288.71794872 , 4261.53846154 , 4354.87179487 , 4247.17948718 , 4060.0 , 3744.61538462 , 3762.05128205 , 1684.0 , 1672.0 , 5.166 , 0.0 , 0.0 , 0.0 , 0.0 , 

98.0 , 3373.84615385 , 4120.0 , 4090.76923077 , 3888.20512821 , 4630.76923077 , 4049.74358974 , 4473.84615385 , 4280.0 , 4263.58974359 , 4361.02564103 , 4243.58974359 , 4058.97435897 , 3744.1025641 , 3754.35897436 , 1685.0 , 1673.0 , 5.187 , 0.0 , 0.0 , 0.0 , 0.0 , 

99.0 , 3373.33333333 , 4123.07692308 , 4091.28205128 , 3892.82051282 , 4623.07692308 , 4051.28205128 , 4473.84615385 , 4286.15384615 , 4265.64102564 , 4371.28205128 , 4258.97435897 , 4061.53846154 , 3753.84615385 , 3761.53846154 , 1685.0 , 1671.0 , 5.187 , 0.0 , 0.0 , 0.0 , 0.0 , 

100.0 , 3376.92307692 , 4122.05128205 , 4092.30769231 , 3897.43589744 , 4622.05128205 , 4050.76923077 , 4472.82051282 , 4297.94871795 , 4268.20512821 , 4360.51282051 , 4265.12820513 , 4062.56410256 , 3754.87179487 , 3771.28205128 , 1685.0 , 1672.0 , 5.191 , 0.0 , 0.0 , 0.0 , 0.0 , 

101.0 , 3378.46153846 , 4121.02564103 , 4094.35897436 , 3890.76923077 , 4624.61538462 , 4050.25641026 , 4471.28205128 , 4295.8974359 , 4273.33333333 , 4354.87179487 , 4262.05128205 , 4065.64102564 , 3755.38461538 , 3771.28205128 , 1687.0 , 1669.0 , 5.197 , 0.0 , 0.0 , 0.0 , 0.0 , 

102.0 , 3378.46153846 , 4128.71794872 , 4095.8974359 , 3893.84615385 , 4615.38461538 , 4051.79487179 , 4471.79487179 , 4295.8974359 , 4278.46153846 , 4366.66666667 , 4266.15384615 , 4071.28205128 , 3761.02564103 , 3769.23076923 , 1685.0 , 1670.0 , 5.221 , 0.0 , 0.0 , 0.0 , 0.0 , 

103.0 , 3378.97435897 , 4136.41025641 , 4097.94871795 , 3905.64102564 , 4609.74358974 , 4057.43589744 , 4472.82051282 , 4302.05128205 , 4282.56410256 , 4371.28205128 , 4267.69230769 , 4069.74358974 , 3760.0 , 3772.82051282 , 1687.0 , 1669.0 , 5.221 , 0.0 , 0.0 , 0.0 , 0.0 , 

104.0 , 3384.61538462 , 4147.69230769 , 4100.0 , 3906.15384615 , 4624.1025641 , 4065.12820513 , 4473.33333333 , 4298.46153846 , 4272.30769231 , 4365.64102564 , 4263.07692308 , 4068.20512821 , 3763.07692308 , 3783.07692308 , 1686.0 , 1669.0 , 5.221 , 0.0 , 0.0 , 0.0 , 0.0 , 

105.0 , 3387.69230769 , 4152.82051282 , 4101.53846154 , 3895.8974359 , 4631.79487179 , 4069.23076923 , 4472.82051282 , 4293.33333333 , 4265.64102564 , 4365.12820513 , 4265.64102564 , 4072.82051282 , 3773.33333333 , 3785.12820513 , 1686.0 , 1671.0 , 5.229 , 0.0 , 0.0 , 0.0 , 0.0 , 

106.0 , 3380.0 , 4141.02564103 , 4103.58974359 , 3890.25641026 , 4621.02564103 , 4072.30769231 , 4472.82051282 , 4295.8974359 , 4273.84615385 , 4364.61538462 , 4271.79487179 , 4072.82051282 , 3764.61538462 , 3770.76923077 , 1687.0 , 1671.0 , 5.249 , 0.0 , 0.0 , 0.0 , 0.0 , 

107.0 , 3373.84615385 , 4132.82051282 , 4106.15384615 , 3892.82051282 , 4618.97435897 , 4076.92307692 , 4473.33333333 , 4294.35897436 , 4276.92307692 , 4357.43589744 , 4265.64102564 , 4067.17948718 , 3743.58974359 , 3764.1025641 , 1687.0 , 1671.0 , 5.249 , 0.0 , 0.0 , 0.0 , 0.0 , 

108.0 , 3376.41025641 , 4137.94871795 , 4106.66666667 , 3891.28205128 , 4630.25641026 , 4076.41025641 , 4472.82051282 , 4284.1025641 , 4266.66666667 , 4348.20512821 , 4254.87179487 , 4062.56410256 , 3736.92307692 , 3771.28205128 , 1687.0 , 1669.0 , 5.252 , 0.0 , 0.0 , 0.0 , 0.0 , 

109.0 , 3376.41025641 , 4138.97435897 , 4104.61538462 , 3888.71794872 , 4634.87179487 , 4072.30769231 , 4472.82051282 , 4278.97435897 , 4260.0 , 4342.05128205 , 4253.33333333 , 4061.53846154 , 3736.92307692 , 3765.64102564 , 1688.0 , 1671.0 , 5.26 , 0.0 , 0.0 , 0.0 , 0.0 , 

110.0 , 3375.38461538 , 4134.35897436 , 4107.69230769 , 3891.79487179 , 4625.64102564 , 4071.79487179 , 4472.82051282 , 4289.74358974 , 4271.79487179 , 4347.69230769 , 4258.97435897 , 4065.64102564 , 3738.46153846 , 3759.48717949 , 1687.0 , 1669.0 , 5.281 , 0.0 , 0.0 , 0.0 , 0.0 , 

111.0 , 3381.53846154 , 4141.02564103 , 4115.8974359 , 3894.87179487 , 4624.1025641 , 4076.41025641 , 4472.82051282 , 4300.0 , 4281.53846154 , 4362.05128205 , 4267.69230769 , 4069.74358974 , 3753.84615385 , 3773.84615385 , 1687.0 , 1671.0 , 5.281 , 0.0 , 0.0 , 0.0 , 0.0 , 

112.0 , 3386.15384615 , 4153.84615385 , 4121.02564103 , 3893.84615385 , 4628.71794872 , 4082.05128205 , 4472.82051282 , 4288.71794872 , 4273.84615385 , 4365.12820513 , 4278.46153846 , 4071.28205128 , 3772.82051282 , 3789.23076923 , 1688.0 , 1671.0 , 5.283 , 0.0 , 0.0 , 0.0 , 0.0 , 

113.0 , 3386.66666667 , 4158.97435897 , 4118.97435897 , 3893.84615385 , 4622.56410256 , 4081.53846154 , 4472.82051282 , 4277.43589744 , 4262.56410256 , 4358.46153846 , 4281.02564103 , 4073.84615385 , 3772.82051282 , 3786.66666667 , 1686.0 , 1672.0 , 5.291 , 0.0 , 0.0 , 0.0 , 0.0 , 

114.0 , 3389.74358974 , 4154.87179487 , 4115.8974359 , 3896.92307692 , 4613.84615385 , 4074.35897436 , 4472.82051282 , 4281.53846154 , 4264.61538462 , 4356.92307692 , 4277.43589744 , 4073.84615385 , 3766.15384615 , 3781.53846154 , 1687.0 , 1672.0 , 5.316 , 0.0 , 0.0 , 0.0 , 0.0 , 

115.0 , 3390.25641026 , 4158.97435897 , 4116.92307692 , 3896.41025641 , 4617.43589744 , 4072.30769231 , 4472.82051282 , 4284.1025641 , 4268.20512821 , 4356.41025641 , 4277.43589744 , 4071.28205128 , 3769.23076923 , 3783.07692308 , 1687.0 , 1672.0 , 5.316 , 0.0 , 0.0 , 0.0 , 0.0 , 

116.0 , 3393.84615385 , 4170.76923077 , 4115.8974359 , 3900.51282051 , 4621.53846154 , 4075.38461538 , 4472.82051282 , 4282.56410256 , 4264.61538462 , 4359.48717949 , 4279.48717949 , 4071.79487179 , 3772.30769231 , 3786.66666667 , 1687.0 , 1672.0 , 5.316 , 0.0 , 0.0 , 0.0 , 0.0 , 

117.0 , 3400.51282051 , 4172.30769231 , 4114.87179487 , 3910.76923077 , 4613.33333333 , 4074.87179487 , 4472.82051282 , 4289.23076923 , 4269.23076923 , 4364.1025641 , 4282.05128205 , 4073.84615385 , 3768.20512821 , 3789.74358974 , 1687.0 , 1672.0 , 5.323 , 0.0 , 0.0 , 0.0 , 0.0 , 

118.0 , 3395.38461538 , 4163.58974359 , 4112.82051282 , 3903.07692308 , 4622.05128205 , 4075.38461538 , 4472.82051282 , 4296.41025641 , 4273.84615385 , 4360.0 , 4276.92307692 , 4069.74358974 , 3768.71794872 , 3787.69230769 , 1688.0 , 1671.0 , 5.344 , 0.0 , 0.0 , 0.0 , 0.0 , 

119.0 , 3385.64102564 , 4163.07692308 , 4109.74358974 , 3893.33333333 , 4647.69230769 , 4078.97435897 , 4472.82051282 , 4294.35897436 , 4268.71794872 , 4352.30769231 , 4269.74358974 , 4068.71794872 , 3779.48717949 , 3783.58974359 , 1688.0 , 1670.0 , 5.344 , 0.0 , 0.0 , 0.0 , 0.0 , 

120.0 , 3391.28205128 , 4169.23076923 , 4114.35897436 , 3908.20512821 , 4646.15384615 , 4074.87179487 , 4472.82051282 , 4290.76923077 , 4265.12820513 , 4356.92307692 , 4276.41025641 , 4073.84615385 , 3784.61538462 , 3786.15384615 , 1688.0 , 1670.0 , 5.346 , 0.0 , 0.0 , 0.0 , 0.0 , 

121.0 , 3396.92307692 , 4166.66666667 , 4115.8974359 , 3912.30769231 , 4627.69230769 , 4069.23076923 , 4472.82051282 , 4291.79487179 , 4267.17948718 , 4358.97435897 , 4280.0 , 4074.87179487 , 3772.82051282 , 3788.20512821 , 1689.0 , 1670.0 , 5.354 , 0.0 , 0.0 , 0.0 , 0.0 , 

122.0 , 3389.23076923 , 4163.07692308 , 4111.28205128 , 3895.8974359 , 4626.15384615 , 4069.23076923 , 4472.82051282 , 4295.38461538 , 4269.23076923 , 4351.28205128 , 4273.33333333 , 4072.30769231 , 3764.61538462 , 3784.1025641 , 1689.0 , 1671.0 , 5.378 , 0.0 , 0.0 , 0.0 , 0.0 , 

123.0 , 3386.66666667 , 4165.12820513 , 4108.20512821 , 3898.97435897 , 4627.69230769 , 4069.23076923 , 4472.82051282 , 4289.74358974 , 4265.64102564 , 4353.33333333 , 4274.35897436 , 4074.87179487 , 3779.48717949 , 3785.12820513 , 1689.0 , 1671.0 , 5.378 , 0.0 , 0.0 , 0.0 , 0.0 , 

124.0 , 3395.38461538 , 4169.23076923 , 4111.28205128 , 3913.33333333 , 4618.46153846 , 4064.1025641 , 4472.82051282 , 4281.53846154 , 4264.1025641 , 4366.15384615 , 4283.07692308 , 4079.48717949 , 3797.43589744 , 3796.41025641 , 1687.0 , 1672.0 , 5.378 , 0.0 , 0.0 , 0.0 , 0.0 , 

125.0 , 3403.07692308 , 4176.41025641 , 4112.82051282 , 3913.33333333 , 4613.33333333 , 4062.05128205 , 4472.82051282 , 4285.12820513 , 4265.64102564 , 4369.74358974 , 4284.1025641 , 4081.02564103 , 3796.92307692 , 3802.05128205 , 1689.0 , 1672.0 , 5.386 , 0.0 , 0.0 , 0.0 , 0.0 , 

126.0 , 3402.56410256 , 4178.97435897 , 4111.28205128 , 3909.23076923 , 4618.97435897 , 4065.12820513 , 4472.82051282 , 4287.17948718 , 4267.17948718 , 4360.51282051 , 4281.53846154 , 4081.53846154 , 3787.17948718 , 3794.87179487 , 1687.0 , 1671.0 , 5.41 , 0.0 , 0.0 , 0.0 , 0.0 , 

127.0 , 3396.41025641 , 4171.79487179 , 4108.71794872 , 3909.23076923 , 4628.20512821 , 4066.15384615 , 4472.82051282 , 4281.53846154 , 4266.66666667 , 4352.82051282 , 4281.53846154 , 4079.48717949 , 3783.58974359 , 3786.66666667 , 1687.0 , 1672.0 , 5.41 , 0.0 , 0.0 , 0.0 , 0.0 , 

128.0 , 3392.30769231 , 4165.64102564 , 4105.64102564 , 3907.17948718 , 4631.79487179 , 4062.56410256 , 4472.82051282 , 4281.02564103 , 4265.64102564 , 4355.8974359 , 4282.05128205 , 4075.38461538 , 3784.1025641 , 3787.17948718 , 1687.0 , 1669.0 , 5.41 , 0.0 , 0.0 , 0.0 , 0.0 , 

0.0 , 3396.41025641 , 4166.15384615 , 4108.71794872 , 3909.23076923 , 4629.74358974 , 4060.0 , 4472.82051282 , 4283.07692308 , 4269.23076923 , 4361.53846154 , 4280.0 , 4075.38461538 , 3785.12820513 , 3786.15384615 , 1687.0 , 1669.0 , 5.417 , 0.0 , 0.0 , 0.0 , 0.0 , 

1.0 , 3399.48717949 , 4164.61538462 , 4108.71794872 , 3911.79487179 , 4633.84615385 , 4063.07692308 , 4472.82051282 , 4283.07692308 , 4269.74358974 , 4358.46153846 , 4276.41025641 , 4076.41025641 , 3784.1025641 , 3782.56410256 , 1687.0 , 1668.0 , 5.442 , 0.0 , 0.0 , 0.0 , 0.0 , 

2.0 , 3397.43589744 , 4168.71794872 , 4105.12820513 , 3910.25641026 , 4645.64102564 , 4068.71794872 , 4472.82051282 , 4288.20512821 , 4266.66666667 , 4357.43589744 , 4276.92307692 , 4076.92307692 , 3782.56410256 , 3789.74358974 , 1688.0 , 1670.0 , 5.442 , 0.0 , 0.0 , 0.0 , 0.0 , 

3.0 , 3400.51282051 , 4172.30769231 , 4105.64102564 , 3917.94871795 , 4648.71794872 , 4067.17948718 , 4472.82051282 , 4289.23076923 , 4267.69230769 , 4364.61538462 , 4278.46153846 , 4078.46153846 , 3790.76923077 , 3801.02564103 , 1689.0 , 1670.0 , 5.442 , 0.0 , 0.0 , 0.0 , 0.0 , 

4.0 , 3408.71794872 , 4169.23076923 , 4105.12820513 , 3927.17948718 , 4637.94871795 , 4064.1025641 , 4472.82051282 , 4282.05128205 , 4268.71794872 , 4367.17948718 , 4276.41025641 , 4080.0 , 3800.51282051 , 3802.56410256 , 1688.0 , 1672.0 , 5.449 , 0.0 , 0.0 , 0.0 , 0.0 , 

5.0 , 3410.76923077 , 4174.87179487 , 4103.58974359 , 3925.64102564 , 4629.23076923 , 4060.0 , 4472.82051282 , 4280.51282051 , 4265.64102564 , 4367.17948718 , 4284.1025641 , 4082.05128205 , 3798.46153846 , 3800.0 , 1689.0 , 1671.0 , 5.472 , 0.0 , 0.0 , 0.0 , 0.0 , 

6.0 , 3407.69230769 , 4180.51282051 , 4106.15384615 , 3923.07692308 , 4629.74358974 , 4054.87179487 , 4472.82051282 , 4282.05128205 , 4265.12820513 , 4367.69230769 , 4292.30769231 , 4084.1025641 , 3798.97435897 , 3801.02564103 , 1687.0 , 1671.0 , 5.472 , 0.0 , 0.0 , 0.0 , 0.0 , 

7.0 , 3403.07692308 , 4177.94871795 , 4103.58974359 , 3926.15384615 , 4627.17948718 , 4053.33333333 , 4472.82051282 , 4280.51282051 , 4266.66666667 , 4361.53846154 , 4286.66666667 , 4081.53846154 , 3802.05128205 , 3800.51282051 , 1689.0 , 1670.0 , 5.472 , 0.0 , 0.0 , 0.0 , 0.0 , 

8.0 , 3395.38461538 , 4179.48717949 , 4094.87179487 , 3920.51282051 , 4622.05128205 , 4058.46153846 , 4472.82051282 , 4278.97435897 , 4265.12820513 , 4357.43589744 , 4276.92307692 , 4075.38461538 , 3794.87179487 , 3797.43589744 , 1687.0 , 1670.0 , 5.48 , 0.0 , 0.0 , 0.0 , 0.0 , 

9.0 , 3392.82051282 , 4186.15384615 , 4096.92307692 , 3910.76923077 , 4629.23076923 , 4060.51282051 , 4472.82051282 , 4279.48717949 , 4265.64102564 , 4365.64102564 , 4276.92307692 , 4072.30769231 , 3787.17948718 , 3797.94871795 , 1687.0 , 1671.0 , 5.5 , 0.0 , 0.0 , 0.0 , 0.0 , 

10.0 , 3399.48717949 , 4188.20512821 , 4105.64102564 , 3913.33333333 , 4639.48717949 , 4057.94871795 , 4472.82051282 , 4280.51282051 , 4268.20512821 , 4372.30769231 , 4281.02564103 , 4075.38461538 , 3791.28205128 , 3800.0 , 1687.0 , 1669.0 , 5.5 , 0.0 , 0.0 , 0.0 , 0.0 , 

11.0 , 3401.53846154 , 4187.17948718 , 4103.07692308 , 3915.38461538 , 4638.46153846 , 4058.46153846 , 4472.82051282 , 4281.53846154 , 4267.69230769 , 4368.20512821 , 4282.05128205 , 4080.0 , 3791.28205128 , 3798.46153846 , 1687.0 , 1669.0 , 5.503 , 0.0 , 0.0 , 0.0 , 0.0 , 

12.0 , 3391.79487179 , 4187.17948718 , 4096.41025641 , 3911.79487179 , 4643.07692308 , 4062.05128205 , 4472.82051282 , 4281.53846154 , 4267.17948718 , 4358.46153846 , 4277.43589744 , 4074.87179487 , 3776.92307692 , 3786.15384615 , 1687.0 , 1668.0 , 5.511 , 0.0 , 0.0 , 0.0 , 0.0 , 

13.0 , 3386.15384615 , 4185.12820513 , 4097.43589744 , 3917.43589744 , 4650.76923077 , 4062.56410256 , 4472.82051282 , 4279.48717949 , 4266.66666667 , 4347.69230769 , 4273.33333333 , 4068.20512821 , 3769.23076923 , 3775.38461538 , 1688.0 , 1669.0 , 5.532 , 0.0 , 0.0 , 0.0 , 0.0 , 

14.0 , 3392.30769231 , 4184.61538462 , 4099.48717949 , 3926.15384615 , 4641.53846154 , 4062.05128205 , 4472.82051282 , 4278.97435897 , 4265.64102564 , 4346.66666667 , 4277.43589744 , 4072.82051282 , 3778.97435897 , 3780.0 , 1688.0 , 1670.0 , 5.532 , 0.0 , 0.0 , 0.0 , 0.0 , 

15.0 , 3397.43589744 , 4185.12820513 , 4097.94871795 , 3926.15384615 , 4630.76923077 , 4059.48717949 , 4472.82051282 , 4278.97435897 , 4264.61538462 , 4351.28205128 , 4282.05128205 , 4076.41025641 , 3793.33333333 , 3786.66666667 , 1688.0 , 1671.0 , 5.535 , 0.0 , 0.0 , 0.0 , 0.0 , 

16.0 , 3395.8974359 , 4184.61538462 , 4097.94871795 , 3922.56410256 , 4637.94871795 , 4061.02564103 , 4472.82051282 , 4276.41025641 , 4266.66666667 , 4348.71794872 , 4277.94871795 , 4070.25641026 , 3795.8974359 , 3784.1025641 , 1688.0 , 1671.0 , 5.543 , 0.0 , 0.0 , 0.0 , 0.0 , 

17.0 , 3395.38461538 , 4186.15384615 , 4100.0 , 3924.1025641 , 4645.12820513 , 4062.56410256 , 4472.82051282 , 4275.38461538 , 4266.66666667 , 4350.25641026 , 4277.94871795 , 4067.17948718 , 3792.82051282 , 3781.53846154 , 1687.0 , 1671.0 , 5.567 , 0.0 , 0.0 , 0.0 , 0.0 , 

18.0 , 3397.43589744 , 4188.20512821 , 4101.02564103 , 3925.12820513 , 4637.43589744 , 4056.92307692 , 4472.82051282 , 4281.02564103 , 4265.64102564 , 4360.0 , 4280.51282051 , 4074.35897436 , 3791.79487179 , 3785.64102564 , 1687.0 , 1669.0 , 5.567 , 0.0 , 0.0 , 0.0 , 0.0 , 

19.0 , 3393.33333333 , 4182.05128205 , 4098.46153846 , 3917.43589744 , 4629.74358974 , 4054.35897436 , 4472.82051282 , 4283.07692308 , 4265.64102564 , 4361.02564103 , 4275.38461538 , 4076.41025641 , 3788.71794872 , 3786.15384615 , 1687.0 , 1669.0 , 5.567 , 0.0 , 0.0 , 0.0 , 0.0 , 

20.0 , 3385.12820513 , 4171.28205128 , 4092.30769231 , 3910.76923077 , 4629.74358974 , 4061.02564103 , 4472.82051282 , 4276.92307692 , 4263.07692308 , 4344.61538462 , 4262.56410256 , 4067.69230769 , 3781.53846154 , 3774.87179487 , 1687.0 , 1668.0 , 5.574 , 0.0 , 0.0 , 0.0 , 0.0 , 

21.0 , 3385.64102564 , 4173.84615385 , 4091.28205128 , 3918.46153846 , 4630.25641026 , 4061.53846154 , 4472.82051282 , 4282.05128205 , 4272.30769231 , 4336.92307692 , 4260.0 , 4067.69230769 , 3781.02564103 , 3770.76923077 , 1688.0 , 1668.0 , 5.597 , 0.0 , 0.0 , 0.0 , 0.0 , 

22.0 , 3393.84615385 , 4185.64102564 , 4095.8974359 , 3929.74358974 , 4633.33333333 , 4056.92307692 , 4472.82051282 , 4293.84615385 , 4282.05128205 , 4349.23076923 , 4275.8974359 , 4076.41025641 , 3793.84615385 , 3783.07692308 , 1688.0 , 1668.0 , 5.597 , 0.0 , 0.0 , 0.0 , 0.0 , 

23.0 , 3395.8974359 , 4186.15384615 , 4094.87179487 , 3930.25641026 , 4645.12820513 , 4067.17948718 , 4472.82051282 , 4281.53846154 , 4270.76923077 , 4349.74358974 , 4282.56410256 , 4073.84615385 , 3795.38461538 , 3784.61538462 , 1688.0 , 1670.0 , 5.597 , 0.0 , 0.0 , 0.0 , 0.0 , 

24.0 , 3388.71794872 , 4179.48717949 , 4090.76923077 , 3926.66666667 , 4654.87179487 , 4074.35897436 , 4472.82051282 , 4263.07692308 , 4257.43589744 , 4336.41025641 , 4272.82051282 , 4064.61538462 , 3786.15384615 , 3770.76923077 , 1690.0 , 1670.0 , 5.605 , 0.0 , 0.0 , 0.0 , 0.0 , 

25.0 , 3391.28205128 , 4181.53846154 , 4093.84615385 , 3924.61538462 , 4646.66666667 , 4057.43589744 , 4472.82051282 , 4272.82051282 , 4263.58974359 , 4337.94871795 , 4272.82051282 , 4068.20512821 , 3792.30769231 , 3773.33333333 , 1688.0 , 1671.0 , 5.629 , 0.0 , 0.0 , 0.0 , 0.0 , 

26.0 , 3401.53846154 , 4186.66666667 , 4096.92307692 , 3924.1025641 , 4635.38461538 , 4045.64102564 , 4472.82051282 , 4286.15384615 , 4269.23076923 , 4345.12820513 , 4283.07692308 , 4073.33333333 , 3804.1025641 , 3786.15384615 , 1690.0 , 1671.0 , 5.629 , 0.0 , 0.0 , 0.0 , 0.0 , 

27.0 , 3399.48717949 , 4185.64102564 , 4092.82051282 , 3925.12820513 , 4638.97435897 , 4054.87179487 , 4472.82051282 , 4280.51282051 , 4263.58974359 , 4340.51282051 , 4278.97435897 , 4068.20512821 , 3801.53846154 , 3785.12820513 , 1689.0 , 1670.0 , 5.629 , 0.0 , 0.0 , 0.0 , 0.0 , 

28.0 , 3389.74358974 , 4182.05128205 , 4090.25641026 , 3917.43589744 , 4641.53846154 , 4059.48717949 , 4472.82051282 , 4279.48717949 , 4265.64102564 , 4338.97435897 , 4267.69230769 , 4064.61538462 , 3796.41025641 , 3780.0 , 1689.0 , 1672.0 , 5.636 , 0.0 , 0.0 , 0.0 , 0.0 , 

29.0 , 3386.66666667 , 4180.51282051 , 4090.76923077 , 3906.66666667 , 4634.87179487 , 4051.28205128 , 4472.82051282 , 4285.64102564 , 4268.71794872 , 4337.43589744 , 4264.1025641 , 4065.64102564 , 3794.35897436 , 3774.35897436 , 1689.0 , 1670.0 , 5.66 , 0.0 , 0.0 , 0.0 , 0.0 , 

30.0 , 3391.79487179 , 4181.53846154 , 4089.74358974 , 3913.33333333 , 4629.74358974 , 4050.76923077 , 4472.82051282 , 4280.0 , 4265.64102564 , 4326.66666667 , 4261.02564103 , 4063.58974359 , 3786.66666667 , 3767.69230769 , 1688.0 , 1671.0 , 5.66 , 0.0 , 0.0 , 0.0 , 0.0 , 

31.0 , 3399.48717949 , 4182.56410256 , 4095.38461538 , 3925.12820513 , 4629.74358974 , 4055.38461538 , 4472.82051282 , 4282.56410256 , 4271.79487179 , 4334.35897436 , 4268.71794872 , 4067.69230769 , 3791.79487179 , 3782.56410256 , 1689.0 , 1670.0 , 5.66 , 0.0 , 0.0 , 0.0 , 0.0 , 

32.0 , 3402.05128205 , 4184.1025641 , 4099.48717949 , 3924.1025641 , 4639.48717949 , 4053.84615385 , 4472.82051282 , 4297.43589744 , 4283.58974359 , 4357.94871795 , 4282.56410256 , 4074.87179487 , 3811.28205128 , 3800.0 , 1688.0 , 1671.0 , 5.668 , 0.0 , 0.0 , 0.0 , 0.0 , 

33.0 , 3398.97435897 , 4184.61538462 , 4093.84615385 , 3921.02564103 , 4649.74358974 , 4049.74358974 , 4472.82051282 , 4292.82051282 , 4277.43589744 , 4358.46153846 , 4283.07692308 , 4072.82051282 , 3814.35897436 , 3789.23076923 , 1688.0 , 1672.0 , 5.692 , 0.0 , 0.0 , 0.0 , 0.0 , 

34.0 , 3404.61538462 , 4186.66666667 , 4093.33333333 , 3926.66666667 , 4644.61538462 , 4049.74358974 , 4472.82051282 , 4277.43589744 , 4262.05128205 , 4344.1025641 , 4277.94871795 , 4070.76923077 , 3805.64102564 , 3786.66666667 , 1687.0 , 1673.0 , 5.692 , 0.0 , 0.0 , 0.0 , 0.0 , 

35.0 , 3406.15384615 , 4192.82051282 , 4097.43589744 , 3930.76923077 , 4645.64102564 , 4055.38461538 , 4472.82051282 , 4277.43589744 , 4260.51282051 , 4341.02564103 , 4276.92307692 , 4071.79487179 , 3807.69230769 , 3800.51282051 , 1688.0 , 1673.0 , 5.692 , 0.0 , 0.0 , 0.0 , 0.0 , 

36.0 , 3396.41025641 , 4198.46153846 , 4093.84615385 , 3929.74358974 , 4659.48717949 , 4061.02564103 , 4472.82051282 , 4283.07692308 , 4266.15384615 , 4343.07692308 , 4279.48717949 , 4070.25641026 , 3815.8974359 , 3797.94871795 , 1685.0 , 1674.0 , 5.699 , 0.0 , 0.0 , 0.0 , 0.0 , 

37.0 , 3399.48717949 , 4205.64102564 , 4093.33333333 , 3932.82051282 , 4659.48717949 , 4058.97435897 , 4472.82051282 , 4281.02564103 , 4267.69230769 , 4348.20512821 , 4287.17948718 , 4071.28205128 , 3820.0 , 3791.28205128 , 1687.0 , 1675.0 , 5.719 , 0.0 , 0.0 , 0.0 , 0.0 , 

38.0 , 3411.28205128 , 4213.33333333 , 4096.92307692 , 3940.51282051 , 4645.12820513 , 4055.8974359 , 4472.82051282 , 4281.02564103 , 4270.25641026 , 4358.46153846 , 4294.87179487 , 4072.82051282 , 3822.56410256 , 3800.0 , 1686.0 , 1673.0 , 5.719 , 0.0 , 0.0 , 0.0 , 0.0 , 

39.0 , 3410.25641026 , 4216.41025641 , 4094.87179487 , 3940.0 , 4642.56410256 , 4059.48717949 , 4472.82051282 , 4284.1025641 , 4276.41025641 , 4360.51282051 , 4295.38461538 , 4072.30769231 , 3822.56410256 , 3804.61538462 , 1686.0 , 1672.0 , 5.722 , 0.0 , 0.0 , 0.0 , 0.0 , 

40.0 , 3408.71794872 , 4218.97435897 , 4094.87179487 , 3940.0 , 4658.97435897 , 4063.07692308 , 4472.82051282 , 4281.02564103 , 4276.41025641 , 4353.84615385 , 4292.82051282 , 4068.71794872 , 3821.02564103 , 3802.56410256 , 1687.0 , 1669.0 , 5.73 , 0.0 , 0.0 , 0.0 , 0.0 , 

41.0 , 3406.66666667 , 4215.38461538 , 4094.87179487 , 3941.02564103 , 4677.43589744 , 4066.66666667 , 4472.82051282 , 4281.02564103 , 4274.87179487 , 4348.20512821 , 4285.12820513 , 4068.20512821 , 3814.35897436 , 3792.82051282 , 1685.0 , 1670.0 , 5.754 , 0.0 , 0.0 , 0.0 , 0.0 , 

42.0 , 3398.46153846 , 4205.12820513 , 4090.76923077 , 3933.84615385 , 4671.28205128 , 4068.20512821 , 4472.82051282 , 4288.71794872 , 4283.07692308 , 4348.20512821 , 4277.43589744 , 4068.20512821 , 3803.58974359 , 3775.8974359 , 1686.0 , 1670.0 , 5.754 , 0.0 , 0.0 , 0.0 , 0.0 , 

43.0 , 3397.43589744 , 4206.15384615 , 4090.25641026 , 3929.74358974 , 4657.94871795 , 4063.58974359 , 4472.82051282 , 4287.17948718 , 4281.02564103 , 4354.35897436 , 4277.94871795 , 4065.64102564 , 3803.58974359 , 3775.8974359 , 1686.0 , 1670.0 , 5.754 , 0.0 , 0.0 , 0.0 , 0.0 , 

44.0 , 3403.07692308 , 4219.48717949 , 4095.38461538 , 3939.48717949 , 4661.53846154 , 4057.94871795 , 4472.82051282 , 4277.94871795 , 4266.15384615 , 4354.87179487 , 4276.92307692 , 4065.12820513 , 3813.33333333 , 3785.64102564 , 1685.0 , 1672.0 , 5.761 , 0.0 , 0.0 , 0.0 , 0.0 , 

45.0 , 3403.58974359 , 4217.43589744 , 4098.46153846 , 3944.61538462 , 4665.12820513 , 4059.48717949 , 4472.82051282 , 4277.94871795 , 4269.23076923 , 4353.84615385 , 4275.8974359 , 4068.20512821 , 3818.46153846 , 3785.64102564 , 1685.0 , 1673.0 , 5.782 , 0.0 , 0.0 , 0.0 , 0.0 , 

46.0 , 3401.53846154 , 4202.56410256 , 4095.38461538 , 3934.35897436 , 4665.12820513 , 4061.53846154 , 4472.82051282 , 4281.02564103 , 4276.92307692 , 4363.07692308 , 4280.51282051 , 4069.23076923 , 3813.84615385 , 3785.64102564 , 1685.0 , 1673.0 , 5.782 , 0.0 , 0.0 , 0.0 , 0.0 , 

47.0 , 3402.56410256 , 4200.51282051 , 4090.76923077 , 3926.15384615 , 4663.07692308 , 4059.48717949 , 4473.33333333 , 4275.8974359 , 4266.15384615 , 4359.48717949 , 4272.82051282 , 4062.05128205 , 3804.1025641 , 3783.58974359 , 1685.0 , 1674.0 , 5.785 , 0.0 , 0.0 , 0.0 , 0.0 , 

48.0 , 3401.02564103 , 4204.61538462 , 4090.25641026 , 3929.74358974 , 4654.35897436 , 4057.94871795 , 4473.84615385 , 4274.35897436 , 4261.53846154 , 4336.92307692 , 4260.0 , 4054.35897436 , 3792.82051282 , 3776.41025641 , 1686.0 , 1672.0 , 5.793 , 0.0 , 0.0 , 0.0 , 0.0 , 

49.0 , 3395.38461538 , 4201.02564103 , 4090.76923077 , 3936.92307692 , 4654.87179487 , 4060.0 , 4473.84615385 , 4277.94871795 , 4266.66666667 , 4326.15384615 , 4262.05128205 , 4053.84615385 , 3785.64102564 , 3773.33333333 , 1686.0 , 1670.0 , 5.816 , 0.0 , 0.0 , 0.0 , 0.0 , 

50.0 , 3393.33333333 , 4198.46153846 , 4089.23076923 , 3937.43589744 , 4663.58974359 , 4058.97435897 , 4473.84615385 , 4279.48717949 , 4265.12820513 , 4335.38461538 , 4266.66666667 , 4056.41025641 , 3786.15384615 , 3773.33333333 , 1686.0 , 1670.0 , 5.816 , 0.0 , 0.0 , 0.0 , 0.0 , 

51.0 , 3397.94871795 , 4208.71794872 , 4090.76923077 , 3937.43589744 , 4656.41025641 , 4056.41025641 , 4472.82051282 , 4282.05128205 , 4273.33333333 , 4345.64102564 , 4268.20512821 , 4055.8974359 , 3793.84615385 , 3773.84615385 , 1687.0 , 1668.0 , 5.816 , 0.0 , 0.0 , 0.0 , 0.0 , 

52.0 , 3405.12820513 , 4221.53846154 , 4093.84615385 , 3941.02564103 , 4651.28205128 , 4062.05128205 , 4472.30769231 , 4283.58974359 , 4283.07692308 , 4351.79487179 , 4277.94871795 , 4056.41025641 , 3809.74358974 , 3786.66666667 , 1686.0 , 1669.0 , 5.823 , 0.0 , 0.0 , 0.0 , 0.0 , 

53.0 , 3409.74358974 , 4220.51282051 , 4092.82051282 , 3943.58974359 , 4660.51282051 , 4067.17948718 , 4472.82051282 , 4281.53846154 , 4274.35897436 , 4356.41025641 , 4284.61538462 , 4061.53846154 , 3818.46153846 , 3800.0 , 1687.0 , 1669.0 , 5.845 , 0.0 , 0.0 , 0.0 , 0.0 , 

54.0 , 3408.71794872 , 4217.43589744 , 4092.82051282 , 3948.20512821 , 4658.97435897 , 4062.05128205 , 4473.33333333 , 4280.0 , 4264.1025641 , 4360.0 , 4280.0 , 4064.61538462 , 3815.8974359 , 3796.92307692 , 1686.0 , 1670.0 , 5.845 , 0.0 , 0.0 , 0.0 , 0.0 , 

55.0 , 3407.17948718 , 4224.61538462 , 4094.35897436 , 3952.30769231 , 4652.30769231 , 4058.46153846 , 4472.82051282 , 4280.0 , 4265.12820513 , 4365.12820513 , 4282.56410256 , 4062.05128205 , 3818.97435897 , 3794.35897436 , 1687.0 , 1671.0 , 5.848 , 0.0 , 0.0 , 0.0 , 0.0 , 

56.0 , 3412.30769231 , 4228.71794872 , 4093.33333333 , 3954.35897436 , 4660.0 , 4061.02564103 , 4472.82051282 , 4279.48717949 , 4267.69230769 , 4367.69230769 , 4293.84615385 , 4060.51282051 , 3830.25641026 , 3798.46153846 , 1685.0 , 1670.0 , 5.855 , 0.0 , 0.0 , 0.0 , 0.0 , 

57.0 , 3416.41025641 , 4225.64102564 , 4090.25641026 , 3952.30769231 , 4666.15384615 , 4060.51282051 , 4472.82051282 , 4278.46153846 , 4266.66666667 , 4367.17948718 , 4294.35897436 , 4062.05128205 , 3833.84615385 , 3796.41025641 , 1685.0 , 1670.0 , 5.875 , 0.0 , 0.0 , 0.0 , 0.0 , 

58.0 , 3418.46153846 , 4228.71794872 , 4094.35897436 , 3945.64102564 , 4665.12820513 , 4058.97435897 , 4472.82051282 , 4281.02564103 , 4268.71794872 , 4364.1025641 , 4291.79487179 , 4062.56410256 , 3830.25641026 , 3794.87179487 , 1684.0 , 1670.0 , 5.875 , 0.0 , 0.0 , 0.0 , 0.0 , 

59.0 , 3427.69230769 , 4234.35897436 , 4101.53846154 , 3947.17948718 , 4662.56410256 , 4060.51282051 , 4472.82051282 , 4281.02564103 , 4275.8974359 , 4364.1025641 , 4301.02564103 , 4064.61538462 , 3838.46153846 , 3802.05128205 , 1684.0 , 1670.0 , 5.879 , 0.0 , 0.0 , 0.0 , 0.0 , 

60.0 , 3435.8974359 , 4233.84615385 , 4101.02564103 , 3959.48717949 , 4653.33333333 , 4061.53846154 , 4472.82051282 , 4283.07692308 , 4282.05128205 , 4368.71794872 , 4314.87179487 , 4068.20512821 , 3851.28205128 , 3804.61538462 , 1685.0 , 1670.0 , 5.887 , 0.0 , 0.0 , 0.0 , 0.0 , 

61.0 , 3433.33333333 , 4232.30769231 , 4096.41025641 , 3958.97435897 , 4647.69230769 , 4062.05128205 , 4472.82051282 , 4292.30769231 , 4284.1025641 , 4366.15384615 , 4308.71794872 , 4063.58974359 , 3848.71794872 , 3799.48717949 , 1684.0 , 1672.0 , 5.91 , 0.0 , 0.0 , 0.0 , 0.0 , 

62.0 , 3429.23076923 , 4231.28205128 , 4093.84615385 , 3943.58974359 , 4660.0 , 4061.53846154 , 4472.82051282 , 4291.28205128 , 4278.97435897 , 4356.92307692 , 4293.33333333 , 4055.8974359 , 3834.35897436 , 3795.8974359 , 1686.0 , 1671.0 , 5.91 , 0.0 , 0.0 , 0.0 , 0.0 , 

63.0 , 3431.79487179 , 4228.71794872 , 4091.28205128 , 3944.1025641 , 4666.15384615 , 4061.53846154 , 4472.82051282 , 4280.0 , 4274.35897436 , 4355.38461538 , 4293.33333333 , 4058.97435897 , 3829.23076923 , 3799.48717949 , 1685.0 , 1671.0 , 5.91 , 0.0 , 0.0 , 0.0 , 0.0 , 

64.0 , 3432.30769231 , 4230.25641026 , 4091.28205128 , 3952.82051282 , 4654.87179487 , 4069.23076923 , 4473.33333333 , 4277.43589744 , 4271.28205128 , 4355.38461538 , 4295.8974359 , 4061.02564103 , 3831.79487179 , 3804.1025641 , 1687.0 , 1671.0 , 5.918 , 0.0 , 0.0 , 0.0 , 0.0 , 

65.0 , 3423.07692308 , 4231.79487179 , 4091.79487179 , 3947.69230769 , 4654.87179487 , 4075.8974359 , 4473.33333333 , 4280.51282051 , 4265.12820513 , 4346.15384615 , 4283.58974359 , 4054.87179487 , 3826.66666667 , 3795.8974359 , 1687.0 , 1670.0 , 5.941 , 0.0 , 0.0 , 0.0 , 0.0 , 

66.0 , 3418.46153846 , 4231.28205128 , 4089.74358974 , 3939.48717949 , 4661.02564103 , 4074.35897436 , 4472.30769231 , 4278.46153846 , 4265.12820513 , 4343.07692308 , 4275.38461538 , 4055.38461538 , 3823.58974359 , 3787.17948718 , 1687.0 , 1670.0 , 5.941 , 0.0 , 0.0 , 0.0 , 0.0 , 

67.0 , 3426.66666667 , 4233.33333333 , 4089.74358974 , 3942.56410256 , 4649.23076923 , 4075.8974359 , 4472.30769231 , 4278.46153846 , 4270.76923077 , 4344.61538462 , 4285.64102564 , 4062.56410256 , 3831.28205128 , 3795.8974359 , 1687.0 , 1669.0 , 5.941 , 0.0 , 0.0 , 0.0 , 0.0 , 

68.0 , 3430.76923077 , 4237.43589744 , 4090.25641026 , 3945.64102564 , 4641.53846154 , 4082.05128205 , 4472.82051282 , 4281.02564103 , 4273.33333333 , 4341.53846154 , 4293.33333333 , 4064.1025641 , 3835.38461538 , 3804.61538462 , 1687.0 , 1669.0 , 5.948 , 0.0 , 0.0 , 0.0 , 0.0 , 

69.0 , 3423.58974359 , 4236.41025641 , 4089.23076923 , 3943.07692308 , 4650.25641026 , 4087.17948718 , 4471.28205128 , 4281.53846154 , 4276.92307692 , 4346.15384615 , 4292.82051282 , 4062.05128205 , 3832.82051282 , 3802.05128205 , 1688.0 , 1669.0 , 5.97 , 0.0 , 0.0 , 0.0 , 0.0 , 

70.0 , 3417.43589744 , 4233.84615385 , 4090.76923077 , 3942.56410256 , 4654.87179487 , 4088.71794872 , 4470.76923077 , 4281.53846154 , 4282.05128205 , 4350.76923077 , 4289.23076923 , 4063.07692308 , 3834.35897436 , 3800.0 , 1687.0 , 1670.0 , 5.97 , 0.0 , 0.0 , 0.0 , 0.0 , 

71.0 , 3415.38461538 , 4232.30769231 , 4090.25641026 , 3939.48717949 , 4646.66666667 , 4084.61538462 , 4471.79487179 , 4280.51282051 , 4278.46153846 , 4344.1025641 , 4282.05128205 , 4064.1025641 , 3833.84615385 , 3800.0 , 1687.0 , 1671.0 , 5.972 , 0.0 , 0.0 , 0.0 , 0.0 , 

72.0 , 3415.8974359 , 4230.76923077 , 4092.30769231 , 3940.51282051 , 4640.51282051 , 4081.02564103 , 4472.30769231 , 4284.1025641 , 4278.46153846 , 4340.0 , 4282.56410256 , 4066.15384615 , 3830.25641026 , 3800.0 , 1688.0 , 1670.0 , 5.979 , 0.0 , 0.0 , 0.0 , 0.0 , 

73.0 , 3417.94871795 , 4231.28205128 , 4099.48717949 , 3942.05128205 , 4648.20512821 , 4086.66666667 , 4472.82051282 , 4287.69230769 , 4281.02564103 , 4341.53846154 , 4288.20512821 , 4068.20512821 , 3834.35897436 , 3801.02564103 , 1689.0 , 1669.0 , 6.001 , 0.0 , 0.0 , 0.0 , 0.0 , 

74.0 , 3414.35897436 , 4231.79487179 , 4101.53846154 , 3932.82051282 , 4659.48717949 , 4091.79487179 , 4473.33333333 , 4277.94871795 , 4270.76923077 , 4326.15384615 , 4280.0 , 4063.58974359 , 3832.82051282 , 3793.84615385 , 1690.0 , 1669.0 , 6.001 , 0.0 , 0.0 , 0.0 , 0.0 , 

75.0 , 3408.71794872 , 4233.33333333 , 4098.97435897 , 3928.71794872 , 4664.61538462 , 4091.28205128 , 4472.30769231 , 4269.23076923 , 4259.48717949 , 4306.15384615 , 4266.15384615 , 4060.51282051 , 3822.05128205 , 3783.07692308 , 1690.0 , 1669.0 , 6.004 , 0.0 , 0.0 , 0.0 , 0.0 , 

76.0 , 3417.94871795 , 4241.53846154 , 4103.07692308 , 3939.48717949 , 4659.48717949 , 4090.76923077 , 4472.30769231 , 4277.94871795 , 4261.53846154 , 4315.38461538 , 4269.74358974 , 4066.66666667 , 3823.07692308 , 3787.69230769 , 1690.0 , 1671.0 , 6.012 , 0.0 , 0.0 , 0.0 , 0.0 , 

77.0 , 3426.66666667 , 4247.69230769 , 4107.69230769 , 3944.61538462 , 4652.30769231 , 4086.66666667 , 4473.33333333 , 4278.97435897 , 4264.61538462 , 4336.92307692 , 4285.12820513 , 4073.33333333 , 3839.48717949 , 3801.02564103 , 1689.0 , 1671.0 , 6.035 , 0.0 , 0.0 , 0.0 , 0.0 , 

78.0 , 3423.07692308 , 4247.69230769 , 4107.17948718 , 3940.0 , 4646.15384615 , 4077.94871795 , 4473.33333333 , 4266.66666667 , 4262.05128205 , 4336.92307692 , 4293.84615385 , 4073.33333333 , 3849.74358974 , 3802.56410256 , 1689.0 , 1671.0 , 6.035 , 0.0 , 0.0 , 0.0 , 0.0 , 

79.0 , 3424.1025641 , 4248.71794872 , 4107.17948718 , 3942.05128205 , 4634.35897436 , 4074.35897436 , 4472.82051282 , 4263.58974359 , 4261.53846154 , 4325.64102564 , 4290.76923077 , 4072.30769231 , 3850.76923077 , 3801.02564103 , 1687.0 , 1670.0 , 6.035 , 0.0 , 0.0 , 0.0 , 0.0 , 

80.0 , 3430.76923077 , 4250.76923077 , 4107.17948718 , 3946.15384615 , 4632.30769231 , 4077.94871795 , 4472.82051282 , 4267.69230769 , 4262.56410256 , 4326.15384615 , 4283.07692308 , 4070.76923077 , 3851.28205128 , 3803.58974359 , 1686.0 , 1672.0 , 6.043 , 0.0 , 0.0 , 0.0 , 0.0 , 

81.0 , 3427.17948718 , 4248.20512821 , 4104.61538462 , 3942.56410256 , 4645.64102564 , 4077.43589744 , 4472.82051282 , 4265.64102564 , 4262.56410256 , 4329.23076923 , 4281.53846154 , 4066.15384615 , 3848.20512821 , 3801.53846154 , 1686.0 , 1670.0 , 6.067 , 0.0 , 0.0 , 0.0 , 0.0 , 

